PE FL                   SPECTRUM    ASCII       PEDS        1.60        
  -1
DLEAEC~1.TXT
18/03/07
17:57:21.00
18/03/07
17:57:21.00


596.500000
1









LS55
350.00
11.00
2.90
SCAN
1
20
100
100
0
60
0
1
0
1
7
ON
600 350 
1 0 0
#HDR
-1
-1
#GR
NM

0.00002384185791015625
0.0
400.000000
0.500000
394
8
329.258857
4.133048
#DATA
400.000000	64.793000  
400.500000	69.553288  
401.000000	74.357928  
401.500000	79.231806  
402.000000	84.190461  
402.500000	89.258797  
403.000000	94.441656  
403.500000	99.689196  
404.000000	104.973602 
404.500000	110.284094 
405.000000	115.570142 
405.500000	120.830476 
406.000000	126.078931 
406.500000	131.376761 
407.000000	136.718503 
407.500000	142.116087 
408.000000	147.505108 
408.500000	152.819942 
409.000000	157.973218 
409.500000	162.950899 
410.000000	167.692613 
410.500000	172.258878 
411.000000	176.739955 
411.500000	181.271754 
412.000000	185.956516 
412.500000	190.917868 
413.000000	196.167578 
413.500000	201.718347 
414.000000	207.472801 
414.500000	213.353626 
415.000000	219.174767 
415.500000	224.731316 
416.000000	229.854202 
416.500000	234.459168 
417.000000	238.520308 
417.500000	242.318794 
418.000000	246.129119 
418.500000	250.078516 
419.000000	254.225302 
419.500000	258.478794 
420.000000	262.681860 
420.500000	266.783132 
421.000000	270.805736 
421.500000	274.727446 
422.000000	278.559453 
422.500000	282.223647 
423.000000	285.655846 
423.500000	288.883541 
424.000000	292.138475 
424.500000	295.587518 
425.000000	299.194326 
425.500000	302.737184 
426.000000	305.904815 
426.500000	308.508083 
427.000000	310.583861 
427.500000	312.346638 
428.000000	314.062126 
428.500000	315.913379 
429.000000	318.000094 
429.500000	320.324536 
430.000000	322.739868 
430.500000	324.970916 
431.000000	326.865450 
431.500000	328.202656 
432.000000	328.895344 
432.500000	329.177564 
433.000000	329.258857 
433.500000	329.072158 
434.000000	328.653521 
434.500000	328.010281 
435.000000	327.108365 
435.500000	326.025351 
436.000000	325.027231 
436.500000	324.153926 
437.000000	323.386679 
437.500000	322.795907 
438.000000	322.381456 
438.500000	322.018585 
439.000000	321.732474 
439.500000	321.481154 
440.000000	321.172563 
440.500000	320.763649 
441.000000	320.329492 
441.500000	319.773701 
442.000000	319.152205 
442.500000	318.509962 
443.000000	317.809594 
443.500000	316.904969 
444.000000	315.790793 
444.500000	314.388288 
445.000000	312.804135 
445.500000	311.170055 
446.000000	309.633842 
446.500000	308.240986 
447.000000	307.099845 
447.500000	306.154514 
448.000000	305.361472 
448.500000	304.669214 
449.000000	303.983439 
449.500000	303.087422 
450.000000	301.876443 
450.500000	300.369581 
451.000000	298.701949 
451.500000	297.016640 
452.000000	295.359972 
452.500000	293.741351 
453.000000	292.063064 
453.500000	290.218546 
454.000000	288.247963 
454.500000	286.258436 
455.000000	284.323688 
455.500000	282.540850 
456.000000	280.929598 
456.500000	279.317707 
457.000000	277.689139 
457.500000	276.076458 
458.000000	274.465278 
458.500000	272.887688 
459.000000	271.473845 
459.500000	270.104822 
460.000000	268.752001 
460.500000	267.407133 
461.000000	265.999461 
461.500000	264.549238 
462.000000	263.155463 
462.500000	261.744442 
463.000000	260.315810 
463.500000	259.025728 
464.000000	257.803285 
464.500000	256.724362 
465.000000	255.861956 
465.500000	255.143110 
466.000000	254.464135 
466.500000	253.898538 
467.000000	253.403068 
467.500000	252.986288 
468.000000	252.631435 
468.500000	252.326009 
469.000000	251.913087 
469.500000	251.367640 
470.000000	250.771308 
470.500000	250.145740 
471.000000	249.490055 
471.500000	248.879654 
472.000000	248.274475 
472.500000	247.571813 
473.000000	246.836612 
473.500000	246.101813 
474.000000	245.338372 
474.500000	244.630945 
475.000000	243.968765 
475.500000	243.306744 
476.000000	242.573629 
476.500000	241.754605 
477.000000	240.899977 
477.500000	240.062058 
478.000000	239.286894 
478.500000	238.639398 
479.000000	238.033832 
479.500000	237.347237 
480.000000	236.583119 
480.500000	235.767338 
481.000000	234.872118 
481.500000	234.017313 
482.000000	233.194913 
482.500000	232.308684 
483.000000	231.418649 
483.500000	230.562953 
484.000000	229.747370 
484.500000	229.032126 
485.000000	228.424926 
485.500000	227.823870 
486.000000	227.150835 
486.500000	226.406103 
487.000000	225.539315 
487.500000	224.632524 
488.000000	223.735401 
488.500000	222.848001 
489.000000	221.950191 
489.500000	221.025217 
490.000000	219.964085 
490.500000	218.841974 
491.000000	217.655909 
491.500000	216.422216 
492.000000	215.149887 
492.500000	213.898870 
493.000000	212.542408 
493.500000	211.191715 
494.000000	209.872323 
494.500000	208.613549 
495.000000	207.363361 
495.500000	206.181354 
496.000000	204.957347 
496.500000	203.676988 
497.000000	202.345972 
497.500000	201.013860 
498.000000	199.596191 
498.500000	198.172059 
499.000000	196.735373 
499.500000	195.255712 
500.000000	193.796570 
500.500000	192.414500 
501.000000	191.033965 
501.500000	189.679905 
502.000000	188.344765 
502.500000	186.954807 
503.000000	185.517214 
503.500000	184.097358 
504.000000	182.685746 
504.500000	181.293184 
505.000000	179.943365 
505.500000	178.599563 
506.000000	177.218196 
506.500000	175.814034 
507.000000	174.438170 
507.500000	173.057129 
508.000000	171.711306 
508.500000	170.393464 
509.000000	169.058343 
509.500000	167.614267 
510.000000	166.082119 
510.500000	164.409818 
511.000000	162.651997 
511.500000	160.864242 
512.000000	159.061955 
512.500000	157.179673 
513.000000	155.253499 
513.500000	153.236152 
514.000000	151.139691 
514.500000	149.030969 
515.000000	146.934142 
515.500000	144.855666 
516.000000	142.816456 
516.500000	140.784118 
517.000000	138.676930 
517.500000	136.520206 
518.000000	134.280435 
518.500000	131.936655 
519.000000	129.526617 
519.500000	127.098588 
520.000000	124.658786 
520.500000	122.268418 
521.000000	119.916220 
521.500000	117.588285 
522.000000	115.269663 
522.500000	112.954914 
523.000000	110.608133 
523.500000	108.294907 
524.000000	106.009405 
524.500000	103.766281 
525.000000	101.539779 
525.500000	99.322899  
526.000000	97.112675  
526.500000	94.961875  
527.000000	92.840343  
527.500000	90.768258  
528.000000	88.696620  
528.500000	86.634739  
529.000000	84.569052  
529.500000	82.546143  
530.000000	80.570868  
530.500000	78.673251  
531.000000	76.829635  
531.500000	75.053585  
532.000000	73.313750  
532.500000	71.600302  
533.000000	69.938463  
533.500000	68.304856  
534.000000	66.670083  
534.500000	65.055885  
535.000000	63.445761  
535.500000	61.828119  
536.000000	60.280648  
536.500000	58.811832  
537.000000	57.403054  
537.500000	56.053298  
538.000000	54.765027  
538.500000	53.487478  
539.000000	52.242808  
539.500000	51.039843  
540.000000	49.878700  
540.500000	48.741216  
541.000000	47.652059  
541.500000	46.590708  
542.000000	45.556470  
542.500000	44.519556  
543.000000	43.486543  
543.500000	42.442857  
544.000000	41.430280  
544.500000	40.447228  
545.000000	39.529548  
545.500000	38.646622  
546.000000	37.786238  
546.500000	36.947479  
547.000000	36.134260  
547.500000	35.328675  
548.000000	34.583041  
548.500000	33.895850  
549.000000	33.231052  
549.500000	32.590210  
550.000000	31.964334  
550.500000	31.308622  
551.000000	30.642422  
551.500000	29.985464  
552.000000	29.334011  
552.500000	28.715394  
553.000000	28.140090  
553.500000	27.591041  
554.000000	27.045677  
554.500000	26.503249  
555.000000	25.958984  
555.500000	25.417560  
556.000000	24.893550  
556.500000	24.400117  
557.000000	23.914025  
557.500000	23.437598  
558.000000	22.961905  
558.500000	22.490708  
559.000000	22.021333  
559.500000	21.558882  
560.000000	21.072500  
560.500000	20.579842  
561.000000	20.101433  
561.500000	19.646708  
562.000000	19.221552  
562.500000	18.842227  
563.000000	18.474613  
563.500000	18.097775  
564.000000	17.722563  
564.500000	17.340741  
565.000000	16.950582  
565.500000	16.580290  
566.000000	16.230648  
566.500000	15.890693  
567.000000	15.573680  
567.500000	15.254347  
568.000000	14.922372  
568.500000	14.587977  
569.000000	14.257587  
569.500000	13.940136  
570.000000	13.646442  
570.500000	13.366903  
571.000000	13.094588  
571.500000	12.830647  
572.000000	12.565772  
572.500000	12.307384  
573.000000	12.045958  
573.500000	11.785900  
574.000000	11.520202  
574.500000	11.248464  
575.000000	10.973026  
575.500000	10.703145  
576.000000	10.437476  
576.500000	10.190228  
577.000000	9.963584   
577.500000	9.755884   
578.000000	9.562037   
578.500000	9.370324   
579.000000	9.172298   
579.500000	8.963018   
580.000000	8.751138   
580.500000	8.537817   
581.000000	8.333755   
581.500000	8.137839   
582.000000	7.950490   
582.500000	7.761145   
583.000000	7.578132   
583.500000	7.393935   
584.000000	7.210701   
584.500000	7.032612   
585.000000	6.866085   
585.500000	6.701016   
586.000000	6.545834   
586.500000	6.398578   
587.000000	6.259729   
587.500000	6.120683   
588.000000	5.991407   
588.500000	5.862587   
589.000000	5.728026   
589.500000	5.595138   
590.000000	5.466945   
590.500000	5.335085   
591.000000	5.210263   
591.500000	5.094188   
592.000000	4.970612   
592.500000	4.850478   
593.000000	4.742750   
593.500000	4.644064   
594.000000	4.558430   
594.500000	4.482772   
595.000000	4.401411   
595.500000	4.315136   
596.000000	4.224276   
596.500000	4.133048   

