PE FL                   SPECTRUM    ASCII       PEDS        1.60        
  -1
DL077C~1.TXT
18/01/17
11:38:31.00
18/01/17
11:38:31.00


598.500000
1









LS55
350.00
3.00
2.50
SCAN
1
20
100
100
0
60
0
1
0
1
7
ON
600 350 
1 0 0
#HDR
-1
-1
#GR
NM

0.00002384185791015625
0.0
400.000000
0.500000
398
8
748.206000
6.190000
#DATA
400.000000	196.301000 
400.500000	209.226000 
401.000000	216.817000 
401.500000	228.416000 
402.000000	236.545000 
402.500000	245.232000 
403.000000	254.165000 
403.500000	265.972000 
404.000000	275.878000 
404.500000	287.254000 
405.000000	300.097000 
405.500000	310.319000 
406.000000	321.919000 
406.500000	337.094000 
407.000000	344.451000 
407.500000	357.106000 
408.000000	371.373000 
408.500000	385.705000 
409.000000	392.818000 
409.500000	408.275000 
410.000000	422.136000 
410.500000	429.495000 
411.000000	445.241000 
411.500000	456.691000 
412.000000	469.502000 
412.500000	486.659000 
413.000000	495.043000 
413.500000	506.962000 
414.000000	522.871000 
414.500000	536.809999 
415.000000	546.397000 
415.500000	555.739000 
416.000000	567.278000 
416.500000	587.038000 
417.000000	600.013000 
417.500000	603.631000 
418.000000	613.099000 
418.500000	623.883000 
419.000000	630.942000 
419.500000	644.991000 
420.000000	650.441000 
420.500000	654.990000 
421.000000	669.468000 
421.500000	673.384000 
422.000000	679.335000 
422.500000	686.833999 
423.000000	689.318000 
423.500000	696.061000 
424.000000	702.058000 
424.500000	709.916000 
425.000000	712.490000 
425.500000	720.150000 
426.000000	721.162000 
426.500000	725.126000 
427.000000	725.546000 
427.500000	727.648000 
428.000000	729.975000 
428.500000	728.201000 
429.000000	734.629000 
429.500000	734.478000 
430.000000	736.903000 
430.500000	740.015000 
431.000000	741.091000 
431.500000	739.347000 
432.000000	746.107999 
432.500000	748.206000 
433.000000	740.768000 
433.500000	743.166000 
434.000000	744.158000 
434.500000	747.836000 
435.000000	746.098000 
435.500000	744.024000 
436.000000	743.474000 
436.500000	742.427000 
437.000000	738.440000 
437.500000	733.105000 
438.000000	732.592000 
438.500000	733.013000 
439.000000	731.968000 
439.500000	728.116000 
440.000000	726.053000 
440.500000	726.354000 
441.000000	719.111000 
441.500000	717.127000 
442.000000	720.153000 
442.500000	711.518000 
443.000000	701.891000 
443.500000	703.595000 
444.000000	695.677000 
444.500000	698.480000 
445.000000	687.705000 
445.500000	677.958999 
446.000000	675.992000 
446.500000	666.724000 
447.000000	662.833000 
447.500000	661.735000 
448.000000	652.009000 
448.500000	649.526000 
449.000000	647.364000 
449.500000	639.579000 
450.000000	629.395000 
450.500000	627.064000 
451.000000	616.267000 
451.500000	610.905999 
452.000000	602.057000 
452.500000	600.370000 
453.000000	589.744000 
453.500000	584.309000 
454.000000	581.039000 
454.500000	575.448000 
455.000000	565.173000 
455.500000	559.318000 
456.000000	551.582000 
456.500000	544.672000 
457.000000	534.817000 
457.500000	530.461000 
458.000000	528.515000 
458.500000	520.230000 
459.000000	515.960000 
459.500000	511.575000 
460.000000	504.654000 
460.500000	495.345000 
461.000000	486.646000 
461.500000	478.493000 
462.000000	475.820000 
462.500000	466.772000 
463.000000	460.768000 
463.500000	457.206000 
464.000000	452.161000 
464.500000	445.361000 
465.000000	440.422000 
465.500000	433.842000 
466.000000	430.052000 
466.500000	424.394000 
467.000000	421.105000 
467.500000	413.432000 
468.000000	409.847000 
468.500000	404.324000 
469.000000	399.555000 
469.500000	395.595000 
470.000000	387.139000 
470.500000	384.333000 
471.000000	377.779000 
471.500000	375.598000 
472.000000	374.574000 
472.500000	367.997000 
473.000000	365.160000 
473.500000	359.752000 
474.000000	355.487000 
474.500000	351.187000 
475.000000	348.182000 
475.500000	342.788000 
476.000000	340.538000 
476.500000	333.540000 
477.000000	330.697000 
477.500000	328.439000 
478.000000	324.788000 
478.500000	321.463000 
479.000000	317.400000 
479.500000	316.772000 
480.000000	315.050000 
480.500000	306.857000 
481.000000	306.382000 
481.500000	305.432000 
482.000000	296.894000 
482.500000	294.301000 
483.000000	293.780000 
483.500000	288.393000 
484.000000	281.239000 
484.500000	280.744000 
485.000000	277.026000 
485.500000	270.850000 
486.000000	271.739000 
486.500000	270.285000 
487.000000	266.684000 
487.500000	265.423000 
488.000000	260.952000 
488.500000	257.641000 
489.000000	251.370000 
489.500000	251.039000 
490.000000	248.877000 
490.500000	246.217000 
491.000000	245.259000 
491.500000	236.766000 
492.000000	235.176000 
492.500000	230.962000 
493.000000	229.973000 
493.500000	226.880000 
494.000000	223.771000 
494.500000	222.802000 
495.000000	219.810000 
495.500000	217.008000 
496.000000	214.857000 
496.500000	213.439000 
497.000000	212.529000 
497.500000	209.486000 
498.000000	204.340000 
498.500000	202.073000 
499.000000	197.459000 
499.500000	197.539000 
500.000000	193.230000 
500.500000	193.226000 
501.000000	189.022000 
501.500000	188.911000 
502.000000	183.434000 
502.500000	183.526000 
503.000000	181.818000 
503.500000	180.687000 
504.000000	176.209000 
504.500000	173.370000 
505.000000	175.178000 
505.500000	170.775000 
506.000000	166.610000 
506.500000	167.938000 
507.000000	166.253000 
507.500000	162.361000 
508.000000	159.970000 
508.500000	157.862000 
509.000000	154.719000 
509.500000	152.196000 
510.000000	151.925000 
510.500000	150.811000 
511.000000	148.008000 
511.500000	143.903000 
512.000000	143.347000 
512.500000	139.872000 
513.000000	137.901000 
513.500000	135.904000 
514.000000	135.126000 
514.500000	132.709000 
515.000000	129.416000 
515.500000	128.935000 
516.000000	122.358000 
516.500000	124.163000 
517.000000	121.078000 
517.500000	116.601000 
518.000000	114.548000 
518.500000	114.694000 
519.000000	111.968000 
519.500000	110.422000 
520.000000	109.676000 
520.500000	106.731000 
521.000000	103.993000 
521.500000	100.805000 
522.000000	98.833000  
522.500000	95.157000  
523.000000	93.533000  
523.500000	91.956999  
524.000000	90.473000  
524.500000	88.001000  
525.000000	85.048000  
525.500000	85.163000  
526.000000	82.553000  
526.500000	80.152000  
527.000000	78.286000  
527.500000	76.015000  
528.000000	75.624000  
528.500000	72.858000  
529.000000	71.405000  
529.500000	68.900000  
530.000000	66.766000  
530.500000	66.554000  
531.000000	64.539000  
531.500000	64.116000  
532.000000	61.809000  
532.500000	58.558000  
533.000000	57.162000  
533.500000	55.481000  
534.000000	55.459000  
534.500000	53.549000  
535.000000	53.351000  
535.500000	51.372000  
536.000000	48.931000  
536.500000	49.006000  
537.000000	48.875000  
537.500000	47.383000  
538.000000	45.051000  
538.500000	43.509000  
539.000000	43.842000  
539.500000	43.564000  
540.000000	42.029000  
540.500000	39.351000  
541.000000	40.063000  
541.500000	37.484000  
542.000000	37.658000  
542.500000	36.874000  
543.000000	36.549000  
543.500000	36.036000  
544.000000	34.692000  
544.500000	32.954000  
545.000000	33.940000  
545.500000	32.727000  
546.000000	30.876000  
546.500000	30.151000  
547.000000	30.113000  
547.500000	29.547000  
548.000000	28.967000  
548.500000	28.735000  
549.000000	27.786000  
549.500000	27.055000  
550.000000	26.950000  
550.500000	27.339000  
551.000000	26.209000  
551.500000	25.737000  
552.000000	25.008000  
552.500000	24.855000  
553.000000	24.501000  
553.500000	23.902000  
554.000000	23.488000  
554.500000	22.805000  
555.000000	22.178000  
555.500000	22.566000  
556.000000	21.628000  
556.500000	21.309000  
557.000000	20.918000  
557.500000	21.295000  
558.000000	20.081000  
558.500000	18.948000  
559.000000	18.645000  
559.500000	18.983000  
560.000000	18.787000  
560.500000	17.942000  
561.000000	17.637000  
561.500000	17.564000  
562.000000	17.288000  
562.500000	17.408000  
563.000000	16.768000  
563.500000	16.142000  
564.000000	15.498000  
564.500000	15.558000  
565.000000	14.749000  
565.500000	15.305000  
566.000000	14.888000  
566.500000	14.588000  
567.000000	14.025000  
567.500000	13.899000  
568.000000	13.602000  
568.500000	13.460000  
569.000000	14.108000  
569.500000	13.253000  
570.000000	12.738000  
570.500000	12.930000  
571.000000	13.091000  
571.500000	12.742000  
572.000000	12.220000  
572.500000	11.956000  
573.000000	12.329000  
573.500000	11.633000  
574.000000	11.744000  
574.500000	11.180000  
575.000000	11.225000  
575.500000	10.321000  
576.000000	10.538000  
576.500000	10.499000  
577.000000	10.356000  
577.500000	9.842000   
578.000000	10.162000  
578.500000	10.188000  
579.000000	9.792999   
579.500000	9.722000   
580.000000	9.465000   
580.500000	9.689000   
581.000000	9.013999   
581.500000	9.054000   
582.000000	9.173000   
582.500000	8.497000   
583.000000	8.348000   
583.500000	8.234999   
584.000000	8.385999   
584.500000	7.994000   
585.000000	8.130000   
585.500000	7.946000   
586.000000	7.559000   
586.500000	7.718000   
587.000000	7.685000   
587.500000	7.610000   
588.000000	7.709000   
588.500000	6.986000   
589.000000	7.531000   
589.500000	7.256000   
590.000000	7.288000   
590.500000	6.783000   
591.000000	7.321000   
591.500000	7.220000   
592.000000	6.489000   
592.500000	7.274000   
593.000000	6.947000   
593.500000	6.664000   
594.000000	6.742000   
594.500000	6.750000   
595.000000	6.322000   
595.500000	6.896000   
596.000000	6.628000   
596.500000	6.421000   
597.000000	6.370000   
597.500000	6.209000   
598.000000	6.254000   
598.500000	6.190000   

