PE FL                   SPECTRUM    ASCII       PEDS        1.60        
  -1
DLDEC2~1.TXT
18/03/07
16:23:42.00
18/03/07
16:23:42.00


596.500000
1









LS55
350.00
11.00
2.90
SCAN
1
20
100
100
0
60
0
1
0
1
7
ON
600 350 
1 0 0
#HDR
-1
-1
#GR
NM

0.00002384185791015625
0.0
400.000000
0.500000
394
8
571.308394
4.228545
#DATA
400.000000	78.892000  
400.500000	86.451258  
401.000000	93.700948  
401.500000	100.739733 
402.000000	107.680446 
402.500000	114.645410 
403.000000	121.905326 
403.500000	129.502058 
404.000000	137.225697 
404.500000	145.119529 
405.000000	153.192423 
405.500000	161.404079 
406.000000	169.776684 
406.500000	178.338245 
407.000000	186.921131 
407.500000	195.486273 
408.000000	203.926451 
408.500000	212.232061 
409.000000	220.437165 
409.500000	228.751203 
410.000000	237.305807 
410.500000	246.272960 
411.000000	255.557235 
411.500000	265.186845 
412.000000	275.081080 
412.500000	285.215092 
413.000000	295.520437 
413.500000	305.964419 
414.000000	316.346390 
414.500000	326.737580 
415.000000	337.072372 
415.500000	347.341218 
416.000000	357.512193 
416.500000	367.554744 
417.000000	377.306224 
417.500000	386.888161 
418.000000	396.466237 
418.500000	406.119503 
419.000000	415.978772 
419.500000	425.964963 
420.000000	435.994034 
420.500000	445.986408 
421.000000	455.931504 
421.500000	465.686811 
422.000000	475.142220 
422.500000	483.956117 
423.000000	492.074541 
423.500000	499.395359 
424.000000	506.084456 
424.500000	512.288189 
425.000000	518.278704 
425.500000	523.909928 
426.000000	529.202269 
426.500000	534.092887 
427.000000	538.393888 
427.500000	542.235317 
428.000000	545.846228 
428.500000	549.272793 
429.000000	552.457972 
429.500000	555.505146 
430.000000	558.146723 
430.500000	560.290369 
431.000000	562.092981 
431.500000	563.691238 
432.000000	565.094563 
432.500000	566.529789 
433.000000	567.892963 
433.500000	569.063977 
434.000000	570.037432 
434.500000	570.786889 
435.000000	571.207375 
435.500000	571.308394 
436.000000	571.119548 
436.500000	570.659934 
437.000000	570.070609 
437.500000	569.312401 
438.000000	568.317023 
438.500000	567.110464 
439.000000	565.623944 
439.500000	563.865669 
440.000000	562.038246 
440.500000	560.214048 
441.000000	558.326118 
441.500000	556.383619 
442.000000	554.329762 
442.500000	552.088647 
443.000000	549.822799 
443.500000	547.546841 
444.000000	545.118043 
444.500000	542.539496 
445.000000	539.774372 
445.500000	536.656442 
446.000000	533.364797 
446.500000	530.043105 
447.000000	526.691935 
447.500000	523.282132 
448.000000	519.838662 
448.500000	516.178062 
449.000000	512.409779 
449.500000	508.637324 
450.000000	504.843716 
450.500000	501.019585 
451.000000	497.227313 
451.500000	493.302549 
452.000000	489.189875 
452.500000	484.820178 
453.000000	480.166662 
453.500000	475.296027 
454.000000	470.369938 
454.500000	465.523818 
455.000000	460.913570 
455.500000	456.575637 
456.000000	452.352290 
456.500000	448.081782 
457.000000	443.615333 
457.500000	438.968885 
458.000000	434.264147 
458.500000	429.523728 
459.000000	424.803260 
459.500000	420.121202 
460.000000	415.436447 
460.500000	410.817708 
461.000000	406.327093 
461.500000	401.845624 
462.000000	397.393767 
462.500000	392.963675 
463.000000	388.538687 
463.500000	384.169364 
464.000000	380.012009 
464.500000	376.086351 
465.000000	372.400594 
465.500000	368.897504 
466.000000	365.590255 
466.500000	362.327532 
467.000000	359.109976 
467.500000	355.933278 
468.000000	352.750039 
468.500000	349.563871 
469.000000	346.567669 
469.500000	343.649684 
470.000000	340.832099 
470.500000	338.139029 
471.000000	335.510972 
471.500000	332.906910 
472.000000	330.364896 
472.500000	327.853105 
473.000000	325.423108 
473.500000	323.103029 
474.000000	320.805768 
474.500000	318.470813 
475.000000	316.037164 
475.500000	313.534444 
476.000000	311.034576 
476.500000	308.578326 
477.000000	306.155288 
477.500000	303.825211 
478.000000	301.536177 
478.500000	299.293288 
479.000000	297.067832 
479.500000	294.840645 
480.000000	292.547020 
480.500000	290.238262 
481.000000	287.925743 
481.500000	285.641725 
482.000000	283.314408 
482.500000	280.987617 
483.000000	278.625072 
483.500000	276.296447 
484.000000	274.035294 
484.500000	271.891348 
485.000000	269.723993 
485.500000	267.528174 
486.000000	265.290969 
486.500000	263.063571 
487.000000	260.802479 
487.500000	258.568489 
488.000000	256.326207 
488.500000	254.123615 
489.000000	251.955570 
489.500000	249.883478 
490.000000	247.815108 
490.500000	245.730241 
491.000000	243.573270 
491.500000	241.375423 
492.000000	239.162624 
492.500000	237.024304 
493.000000	234.909055 
493.500000	232.872860 
494.000000	230.877461 
494.500000	228.905154 
495.000000	226.924417 
495.500000	224.932659 
496.000000	222.863931 
496.500000	220.750168 
497.000000	218.655637 
497.500000	216.584439 
498.000000	214.506884 
498.500000	212.456312 
499.000000	210.423090 
499.500000	208.388707 
500.000000	206.443457 
500.500000	204.630677 
501.000000	202.884142 
501.500000	201.153213 
502.000000	199.408153 
502.500000	197.588688 
503.000000	195.687878 
503.500000	193.753061 
504.000000	191.770285 
504.500000	189.756528 
505.000000	187.737705 
505.500000	185.763430 
506.000000	183.827831 
506.500000	181.940779 
507.000000	180.097006 
507.500000	178.243857 
508.000000	176.374139 
508.500000	174.496149 
509.000000	172.610143 
509.500000	170.650792 
510.000000	168.680919 
510.500000	166.685866 
511.000000	164.677224 
511.500000	162.669202 
512.000000	160.667100 
512.500000	158.520316 
513.000000	156.285627 
513.500000	153.964764 
514.000000	151.593182 
514.500000	149.243525 
515.000000	146.971065 
515.500000	144.701044 
516.000000	142.397578 
516.500000	140.077100 
517.000000	137.727390 
517.500000	135.398345 
518.000000	133.072979 
518.500000	130.739563 
519.000000	128.280145 
519.500000	125.715111 
520.000000	123.123401 
520.500000	120.602046 
521.000000	118.151746 
521.500000	115.859719 
522.000000	113.631112 
522.500000	111.373732 
523.000000	109.072086 
523.500000	106.746365 
524.000000	104.342609 
524.500000	101.965825 
525.000000	99.665846  
525.500000	97.414192  
526.000000	95.233196  
526.500000	93.153591  
527.000000	91.085271  
527.500000	89.001415  
528.000000	86.903411  
528.500000	84.768896  
529.000000	82.623645  
529.500000	80.559108  
530.000000	78.574483  
530.500000	76.662888  
531.000000	74.830471  
531.500000	73.032281  
532.000000	71.251595  
532.500000	69.511620  
533.000000	67.830917  
533.500000	66.190539  
534.000000	64.591976  
534.500000	63.000921  
535.000000	61.428899  
535.500000	59.874563  
536.000000	58.363013  
536.500000	56.908086  
537.000000	55.517027  
537.500000	54.179338  
538.000000	52.922419  
538.500000	51.698853  
539.000000	50.491164  
539.500000	49.316044  
540.000000	48.173193  
540.500000	47.040828  
541.000000	45.958138  
541.500000	44.901588  
542.000000	43.869880  
542.500000	42.865248  
543.000000	41.904683  
543.500000	40.955167  
544.000000	40.034552  
544.500000	39.111012  
545.000000	38.178642  
545.500000	37.248322  
546.000000	36.361580  
546.500000	35.512065  
547.000000	34.731476  
547.500000	34.003686  
548.000000	33.307418  
548.500000	32.623110  
549.000000	31.945149  
549.500000	31.259566  
550.000000	30.592822  
550.500000	29.956507  
551.000000	29.334649  
551.500000	28.727821  
552.000000	28.147595  
552.500000	27.578626  
553.000000	27.022854  
553.500000	26.491292  
554.000000	25.973306  
554.500000	25.459230  
555.000000	24.943488  
555.500000	24.425012  
556.000000	23.908750  
556.500000	23.408283  
557.000000	22.927861  
557.500000	22.460608  
558.000000	21.993036  
558.500000	21.530843  
559.000000	21.073096  
559.500000	20.612009  
560.000000	20.151444  
560.500000	19.698068  
561.000000	19.237993  
561.500000	18.791596  
562.000000	18.370875  
562.500000	17.973020  
563.000000	17.600772  
563.500000	17.244949  
564.000000	16.886276  
564.500000	16.531131  
565.000000	16.181852  
565.500000	15.847864  
566.000000	15.523990  
566.500000	15.204723  
567.000000	14.891808  
567.500000	14.578313  
568.000000	14.267772  
568.500000	13.972624  
569.000000	13.697952  
569.500000	13.421930  
570.000000	13.153071  
570.500000	12.881721  
571.000000	12.599659  
571.500000	12.320803  
572.000000	12.049005  
572.500000	11.780661  
573.000000	11.522090  
573.500000	11.271253  
574.000000	11.027033  
574.500000	10.795022  
575.000000	10.565633  
575.500000	10.341688  
576.000000	10.118013  
576.500000	9.898351   
577.000000	9.682538   
577.500000	9.480969   
578.000000	9.277124   
578.500000	9.075156   
579.000000	8.872670   
579.500000	8.661835   
580.000000	8.450761   
580.500000	8.251046   
581.000000	8.062315   
581.500000	7.888701   
582.000000	7.736315   
582.500000	7.586244   
583.000000	7.428023   
583.500000	7.261029   
584.000000	7.084280   
584.500000	6.899693   
585.000000	6.734637   
585.500000	6.592414   
586.000000	6.466746   
586.500000	6.352984   
587.000000	6.247730   
587.500000	6.133656   
588.000000	6.014668   
588.500000	5.884322   
589.000000	5.748528   
589.500000	5.612525   
590.000000	5.483919   
590.500000	5.358036   
591.000000	5.244935   
591.500000	5.135442   
592.000000	5.033456   
592.500000	4.938430   
593.000000	4.850475   
593.500000	4.761859   
594.000000	4.676083   
594.500000	4.583884   
595.000000	4.486209   
595.500000	4.394026   
596.000000	4.309559   
596.500000	4.228545   

