PE FL                   SPECTRUM    ASCII       PEDS        1.60        
  -1
DLE2EC~1.TXT
18/03/07
17:46:24.00
18/03/07
17:46:24.00


596.500000
1









LS55
350.00
11.00
2.90
SCAN
1
20
100
100
0
60
0
1
0
1
7
ON
600 350 
1 0 0
#HDR
-1
-1
#GR
NM

0.00002384185791015625
0.0
400.000000
0.500000
394
8
350.519570
4.170414
#DATA
400.000000	67.378000  
400.500000	72.682988  
401.000000	77.970567  
401.500000	83.265768  
402.000000	88.563923  
402.500000	93.870920  
403.000000	99.171178  
403.500000	104.414184 
404.000000	109.571856 
404.500000	114.705288 
405.000000	119.820146 
405.500000	124.983778 
406.000000	130.234729 
406.500000	135.540949 
407.000000	140.825868 
407.500000	146.091281 
408.000000	151.252309 
408.500000	156.360659 
409.000000	161.509165 
409.500000	166.813181 
410.000000	172.271440 
410.500000	177.909364 
411.000000	183.587981 
411.500000	189.266196 
412.000000	194.994912 
412.500000	200.824006 
413.000000	206.758414 
413.500000	212.869057 
414.000000	219.008603 
414.500000	225.104086 
415.000000	231.096605 
415.500000	236.908172 
416.000000	242.606465 
416.500000	248.366005 
417.000000	254.129682 
417.500000	259.854025 
418.000000	265.515040 
418.500000	270.927503 
419.000000	276.057800 
419.500000	280.977655 
420.000000	285.708754 
420.500000	290.289001 
421.000000	294.808078 
421.500000	299.322189 
422.000000	303.936295 
422.500000	308.674518 
423.000000	313.429673 
423.500000	318.020237 
424.000000	322.106191 
424.500000	325.589294 
425.000000	328.496435 
425.500000	330.821443 
426.000000	332.635582 
426.500000	334.153871 
427.000000	335.365298 
427.500000	336.371808 
428.000000	337.312013 
428.500000	338.276673 
429.000000	339.364354 
429.500000	340.676009 
430.000000	342.198461 
430.500000	343.759856 
431.000000	345.234550 
431.500000	346.489474 
432.000000	347.558133 
432.500000	348.352165 
433.000000	348.992234 
433.500000	349.472499 
434.000000	349.793655 
434.500000	350.012421 
435.000000	350.248666 
435.500000	350.363312 
436.000000	350.405629 
436.500000	350.298923 
437.000000	349.988735 
437.500000	349.549211 
438.000000	349.180839 
438.500000	349.008174 
439.000000	349.183769 
439.500000	349.623647 
440.000000	350.170666 
440.500000	350.519570 
441.000000	350.356496 
441.500000	349.485083 
442.000000	347.979210 
442.500000	345.925033 
443.000000	343.654068 
443.500000	341.420647 
444.000000	339.349569 
444.500000	337.462654 
445.000000	335.873999 
445.500000	334.444019 
446.000000	333.096225 
446.500000	331.794338 
447.000000	330.518468 
447.500000	329.138835 
448.000000	327.652786 
448.500000	326.018620 
449.000000	324.177698 
449.500000	322.191581 
450.000000	320.152421 
450.500000	318.113205 
451.000000	316.121078 
451.500000	314.196606 
452.000000	312.284857 
452.500000	310.418619 
453.000000	308.607188 
453.500000	306.850114 
454.000000	305.142425 
454.500000	303.429682 
455.000000	301.642765 
455.500000	299.787849 
456.000000	297.965891 
456.500000	296.200252 
457.000000	294.498075 
457.500000	292.792361 
458.000000	290.996556 
458.500000	289.030697 
459.000000	286.986213 
459.500000	284.933370 
460.000000	282.969174 
460.500000	281.117828 
461.000000	279.423892 
461.500000	277.817616 
462.000000	276.261301 
462.500000	274.761294 
463.000000	273.323941 
463.500000	271.903677 
464.000000	270.582974 
464.500000	269.321953 
465.000000	268.091899 
465.500000	266.893143 
466.000000	265.755691 
466.500000	264.563322 
467.000000	263.447446 
467.500000	262.385822 
468.000000	261.338527 
468.500000	260.330649 
469.000000	259.454686 
469.500000	258.602822 
470.000000	257.867927 
470.500000	257.239308 
471.000000	256.724695 
471.500000	256.249867 
472.000000	255.816877 
472.500000	255.295216 
473.000000	254.689157 
473.500000	253.933287 
474.000000	253.155775 
474.500000	252.385382 
475.000000	251.635493 
475.500000	250.896659 
476.000000	250.179039 
476.500000	249.335460 
477.000000	248.420762 
477.500000	247.508050 
478.000000	246.609301 
478.500000	245.751552 
479.000000	245.009591 
479.500000	244.302285 
480.000000	243.573242 
480.500000	242.856344 
481.000000	242.146803 
481.500000	241.425245 
482.000000	240.705284 
482.500000	239.991269 
483.000000	239.208783 
483.500000	238.341373 
484.000000	237.481594 
484.500000	236.644585 
485.000000	235.818843 
485.500000	235.001610 
486.000000	234.081874 
486.500000	232.944847 
487.000000	231.687284 
487.500000	230.418248 
488.000000	229.128880 
488.500000	227.939322 
489.000000	226.807361 
489.500000	225.576861 
490.000000	224.245977 
490.500000	222.906437 
491.000000	221.483811 
491.500000	220.121235 
492.000000	218.867792 
492.500000	217.625973 
493.000000	216.311538 
493.500000	215.027242 
494.000000	213.679191 
494.500000	212.283072 
495.000000	210.960684 
495.500000	209.687267 
496.000000	208.374435 
496.500000	207.091415 
497.000000	205.778104 
497.500000	204.340574 
498.000000	202.845023 
498.500000	201.287574 
499.000000	199.652506 
499.500000	198.021709 
500.000000	196.460004 
500.500000	194.965472 
501.000000	193.559251 
501.500000	192.186775 
502.000000	190.795499 
502.500000	189.394001 
503.000000	187.983251 
503.500000	186.595422 
504.000000	185.260944 
504.500000	183.947005 
505.000000	182.612790 
505.500000	181.240361 
506.000000	179.809094 
506.500000	178.311782 
507.000000	176.772071 
507.500000	175.221582 
508.000000	173.653237 
508.500000	172.073843 
509.000000	170.516594 
509.500000	168.957619 
510.000000	167.373125 
510.500000	165.775914 
511.000000	164.155913 
511.500000	162.458172 
512.000000	160.693352 
512.500000	158.854690 
513.000000	156.895050 
513.500000	154.875789 
514.000000	152.848150 
514.500000	150.822736 
515.000000	148.831631 
515.500000	146.855663 
516.000000	144.813149 
516.500000	142.723828 
517.000000	140.579730 
517.500000	138.406195 
518.000000	136.217913 
518.500000	133.975896 
519.000000	131.591750 
519.500000	129.068449 
520.000000	126.424284 
520.500000	123.736824 
521.000000	121.134223 
521.500000	118.684729 
522.000000	116.346422 
522.500000	114.067129 
523.000000	111.788185 
523.500000	109.489465 
524.000000	107.184249 
524.500000	104.930139 
525.000000	102.716291 
525.500000	100.520140 
526.000000	98.326329  
526.500000	96.142404  
527.000000	93.940571  
527.500000	91.788213  
528.000000	89.658682  
528.500000	87.574573  
529.000000	85.502061  
529.500000	83.487147  
530.000000	81.502249  
530.500000	79.576249  
531.000000	77.696267  
531.500000	75.868122  
532.000000	74.055994  
532.500000	72.282316  
533.000000	70.550237  
533.500000	68.846626  
534.000000	67.184914  
534.500000	65.589570  
535.000000	64.048048  
535.500000	62.531956  
536.000000	61.057569  
536.500000	59.586354  
537.000000	58.137669  
537.500000	56.718179  
538.000000	55.357172  
538.500000	54.040323  
539.000000	52.762348  
539.500000	51.519179  
540.000000	50.317553  
540.500000	49.156619  
541.000000	48.050963  
541.500000	46.996740  
542.000000	45.982984  
542.500000	44.991845  
543.000000	44.020741  
543.500000	43.059470  
544.000000	42.102267  
544.500000	41.140239  
545.000000	40.186244  
545.500000	39.252292  
546.000000	38.349066  
546.500000	37.480405  
547.000000	36.645573  
547.500000	35.831284  
548.000000	35.034736  
548.500000	34.261516  
549.000000	33.534324  
549.500000	32.859673  
550.000000	32.212739  
550.500000	31.585105  
551.000000	30.948323  
551.500000	30.295283  
552.000000	29.648122  
552.500000	29.028626  
553.000000	28.430576  
553.500000	27.859495  
554.000000	27.309506  
554.500000	26.761227  
555.000000	26.226414  
555.500000	25.708715  
556.000000	25.204744  
556.500000	24.689680  
557.000000	24.178827  
557.500000	23.664447  
558.000000	23.151129  
558.500000	22.647425  
559.000000	22.182592  
559.500000	21.707386  
560.000000	21.237615  
560.500000	20.775495  
561.000000	20.315705  
561.500000	19.867532  
562.000000	19.467582  
562.500000	19.084751  
563.000000	18.707468  
563.500000	18.331799  
564.000000	17.957878  
564.500000	17.589947  
565.000000	17.241895  
565.500000	16.910093  
566.000000	16.576854  
566.500000	16.226177  
567.000000	15.861714  
567.500000	15.502485  
568.000000	15.153704  
568.500000	14.825291  
569.000000	14.517276  
569.500000	14.209312  
570.000000	13.901309  
570.500000	13.594800  
571.000000	13.296117  
571.500000	13.008451  
572.000000	12.730673  
572.500000	12.464132  
573.000000	12.202997  
573.500000	11.938143  
574.000000	11.669672  
574.500000	11.399517  
575.000000	11.121977  
575.500000	10.847645  
576.000000	10.580065  
576.500000	10.315944  
577.000000	10.058684  
577.500000	9.821196   
578.000000	9.593909   
578.500000	9.383076   
579.000000	9.180629   
579.500000	8.978832   
580.000000	8.773315   
580.500000	8.566391   
581.000000	8.357972   
581.500000	8.158850   
582.000000	7.970564   
582.500000	7.787938   
583.000000	7.609253   
583.500000	7.434206   
584.000000	7.262979   
584.500000	7.097478   
585.000000	6.937331   
585.500000	6.781239   
586.000000	6.632090   
586.500000	6.487889   
587.000000	6.348184   
587.500000	6.210768   
588.000000	6.075845   
588.500000	5.940372   
589.000000	5.807058   
589.500000	5.679016   
590.000000	5.556124   
590.500000	5.437460   
591.000000	5.328997   
591.500000	5.220156   
592.000000	5.113990   
592.500000	5.020662   
593.000000	4.924984   
593.500000	4.819220   
594.000000	4.717747   
594.500000	4.603599   
595.000000	4.482210   
595.500000	4.374916   
596.000000	4.272442   
596.500000	4.170414   

