PE FL                   SPECTRUM    ASCII       PEDS        1.60        
  -1
DLDEE4~1.TXT
18/03/08
14:54:35.00
18/03/08
14:54:35.00


596.500000
1









LS55
350.00
11.00
2.90
SCAN
1
20
100
100
0
60
0
1
0
1
7
ON
600 350 
1 0 0
#HDR
-1
-1
#GR
NM

0.00002384185791015625
0.0
400.000000
0.500000
394
8
815.831931
4.254245
#DATA
400.000000	72.499000  
400.500000	79.526238  
401.000000	86.536129  
401.500000	93.602947  
402.000000	100.766347 
402.500000	108.096039 
403.000000	115.696004 
403.500000	123.588627 
404.000000	131.710641 
404.500000	140.129750 
405.000000	148.853728 
405.500000	157.911722 
406.000000	167.219160 
406.500000	176.798143 
407.000000	186.585207 
407.500000	196.571970 
408.000000	206.602605 
408.500000	216.743570 
409.000000	227.019193 
409.500000	237.616047 
410.000000	248.634938 
410.500000	260.141846 
411.000000	271.981612 
411.500000	284.103419 
412.000000	296.469304 
412.500000	309.144517 
413.000000	322.251105 
413.500000	335.788281 
414.000000	349.566001 
414.500000	363.395255 
415.000000	377.155707 
415.500000	390.906792 
416.000000	404.881630 
416.500000	419.069304 
417.000000	433.422859 
417.500000	447.947737 
418.000000	462.622829 
418.500000	477.390051 
419.000000	492.428025 
419.500000	507.499260 
420.000000	522.522015 
420.500000	537.537210 
421.000000	552.606842 
421.500000	567.573970 
422.000000	582.495663 
422.500000	596.833775 
423.000000	610.393373 
423.500000	623.007635 
424.000000	634.891244 
424.500000	646.272871 
425.000000	657.540205 
425.500000	668.560351 
426.000000	679.270161 
426.500000	689.507589 
427.000000	699.217150 
427.500000	708.409331 
428.000000	717.253111 
428.500000	725.770684 
429.000000	733.993588 
429.500000	741.896769 
430.000000	749.491938 
430.500000	756.619990 
431.000000	763.227993 
431.500000	769.391589 
432.000000	775.120121 
432.500000	780.421799 
433.000000	785.532661 
433.500000	790.341218 
434.000000	794.802118 
434.500000	798.740338 
435.000000	802.303573 
435.500000	805.465793 
436.000000	808.247566 
436.500000	810.663813 
437.000000	812.718619 
437.500000	814.164078 
438.000000	815.150955 
438.500000	815.727603 
439.000000	815.831931 
439.500000	815.516691 
440.000000	814.965711 
440.500000	814.030280 
441.000000	812.725781 
441.500000	811.041065 
442.000000	808.882761 
442.500000	806.253089 
443.000000	803.258617 
443.500000	800.042905 
444.000000	796.576216 
444.500000	792.714149 
445.000000	788.454426 
445.500000	783.822164 
446.000000	778.903284 
446.500000	774.005503 
447.000000	769.053011 
447.500000	764.048539 
448.000000	758.830847 
448.500000	753.536140 
449.000000	748.059026 
449.500000	742.522278 
450.000000	736.742691 
450.500000	730.903059 
451.000000	724.806905 
451.500000	718.639472 
452.000000	712.321398 
452.500000	705.968281 
453.000000	699.416057 
453.500000	692.856412 
454.000000	686.159623 
454.500000	679.520114 
455.000000	672.825475 
455.500000	666.028093 
456.000000	659.031887 
456.500000	651.941384 
457.000000	644.698142 
457.500000	637.500050 
458.000000	630.360277 
458.500000	623.172665 
459.000000	615.897987 
459.500000	608.661884 
460.000000	601.364138 
460.500000	594.050619 
461.000000	586.950771 
461.500000	579.978846 
462.000000	573.065873 
462.500000	566.467873 
463.000000	560.161677 
463.500000	554.001981 
464.000000	548.075578 
464.500000	542.259807 
465.000000	536.385142 
465.500000	530.630228 
466.000000	525.090245 
466.500000	519.583111 
467.000000	514.161995 
467.500000	508.818928 
468.000000	503.356940 
468.500000	497.894684 
469.000000	492.663686 
469.500000	487.645820 
470.000000	482.814326 
470.500000	478.131821 
471.000000	473.454104 
471.500000	468.774984 
472.000000	464.163189 
472.500000	459.609111 
473.000000	455.032117 
473.500000	450.426066 
474.000000	445.762822 
474.500000	441.142266 
475.000000	436.560170 
475.500000	432.111146 
476.000000	427.723900 
476.500000	423.359644 
477.000000	418.935231 
477.500000	414.519299 
478.000000	410.135156 
478.500000	405.872189 
479.000000	401.715714 
479.500000	397.634754 
480.000000	393.572400 
480.500000	389.457097 
481.000000	385.259185 
481.500000	381.015591 
482.000000	376.764046 
482.500000	372.593142 
483.000000	368.541629 
483.500000	364.574670 
484.000000	360.575327 
484.500000	356.537393 
485.000000	352.473796 
485.500000	348.464456 
486.000000	344.455877 
486.500000	340.560944 
487.000000	336.710079 
487.500000	332.910092 
488.000000	329.074069 
488.500000	325.330539 
489.000000	321.483347 
489.500000	317.622912 
490.000000	313.703016 
490.500000	309.739319 
491.000000	305.670422 
491.500000	301.745090 
492.000000	297.887006 
492.500000	294.160153 
493.000000	290.513370 
493.500000	286.949283 
494.000000	283.333705 
494.500000	279.775682 
495.000000	276.244211 
495.500000	272.735807 
496.000000	269.184474 
496.500000	265.582675 
497.000000	261.856313 
497.500000	258.111186 
498.000000	254.526269 
498.500000	251.114026 
499.000000	247.855741 
499.500000	244.747755 
500.000000	241.629559 
500.500000	238.461843 
501.000000	235.358507 
501.500000	232.317796 
502.000000	229.337025 
502.500000	226.464078 
503.000000	223.615698 
503.500000	220.755564 
504.000000	217.887375 
504.500000	214.966582 
505.000000	212.058631 
505.500000	209.198046 
506.000000	206.414432 
506.500000	203.765843 
507.000000	201.194553 
507.500000	198.607841 
508.000000	196.045967 
508.500000	193.442548 
509.000000	190.781721 
509.500000	188.120875 
510.000000	185.436227 
510.500000	182.766991 
511.000000	180.150317 
511.500000	177.547979 
512.000000	174.916196 
512.500000	172.235548 
513.000000	169.382020 
513.500000	166.448089 
514.000000	163.503312 
514.500000	160.610263 
515.000000	157.758281 
515.500000	154.950382 
516.000000	152.060457 
516.500000	149.162849 
517.000000	146.281825 
517.500000	143.486032 
518.000000	140.768884 
518.500000	138.098952 
519.000000	135.338776 
519.500000	132.465905 
520.000000	129.442852 
520.500000	126.394456 
521.000000	123.386970 
521.500000	120.511571 
522.000000	117.723379 
522.500000	114.989206 
523.000000	112.271444 
523.500000	109.573550 
524.000000	106.904979 
524.500000	104.328573 
525.000000	101.834386 
525.500000	99.382467  
526.000000	96.967693  
526.500000	94.596779  
527.000000	92.246340  
527.500000	89.963119  
528.000000	87.730023  
528.500000	85.518789  
529.000000	83.322171  
529.500000	81.145820  
530.000000	78.973757  
530.500000	76.862365  
531.000000	74.801500  
531.500000	72.827191  
532.000000	70.913634  
532.500000	69.079407  
533.000000	67.303390  
533.500000	65.594584  
534.000000	63.926276  
534.500000	62.284880  
535.000000	60.669299  
535.500000	59.069887  
536.000000	57.507270  
536.500000	56.003015  
537.000000	54.569994  
537.500000	53.209800  
538.000000	51.912714  
538.500000	50.632036  
539.000000	49.380117  
539.500000	48.151464  
540.000000	46.946663  
540.500000	45.787804  
541.000000	44.701588  
541.500000	43.647453  
542.000000	42.618386  
542.500000	41.608743  
543.000000	40.594124  
543.500000	39.594863  
544.000000	38.630338  
544.500000	37.701564  
545.000000	36.785464  
545.500000	35.892912  
546.000000	35.013269  
546.500000	34.174534  
547.000000	33.366856  
547.500000	32.618059  
548.000000	31.910769  
548.500000	31.252449  
549.000000	30.614774  
549.500000	29.997582  
550.000000	29.357654  
550.500000	28.706875  
551.000000	28.040369  
551.500000	27.385023  
552.000000	26.762238  
552.500000	26.171131  
553.000000	25.602850  
553.500000	25.052331  
554.000000	24.512340  
554.500000	23.982827  
555.000000	23.487606  
555.500000	23.019623  
556.000000	22.563797  
556.500000	22.105280  
557.000000	21.648479  
557.500000	21.184461  
558.000000	20.724133  
558.500000	20.265741  
559.000000	19.802309  
559.500000	19.340140  
560.000000	18.893839  
560.500000	18.456124  
561.000000	18.039790  
561.500000	17.653034  
562.000000	17.277596  
562.500000	16.910474  
563.000000	16.563439  
563.500000	16.221343  
564.000000	15.890129  
564.500000	15.574620  
565.000000	15.262753  
565.500000	14.946496  
566.000000	14.629714  
566.500000	14.304981  
567.000000	13.975355  
567.500000	13.646973  
568.000000	13.332762  
568.500000	13.036037  
569.000000	12.760488  
569.500000	12.501647  
570.000000	12.260481  
570.500000	12.028248  
571.000000	11.799661  
571.500000	11.564534  
572.000000	11.324789  
572.500000	11.076912  
573.000000	10.830235  
573.500000	10.591126  
574.000000	10.361163  
574.500000	10.135262  
575.000000	9.918921   
575.500000	9.704284   
576.000000	9.496722   
576.500000	9.297030   
577.000000	9.103315   
577.500000	8.909790   
578.000000	8.719302   
578.500000	8.520938   
579.000000	8.329239   
579.500000	8.150772   
580.000000	7.985598   
580.500000	7.830662   
581.000000	7.684726   
581.500000	7.525779   
582.000000	7.360655   
582.500000	7.189442   
583.000000	7.019225   
583.500000	6.859591   
584.000000	6.718815   
584.500000	6.582064   
585.000000	6.454516   
585.500000	6.330408   
586.000000	6.205417   
586.500000	6.082896   
587.000000	5.973068   
587.500000	5.868085   
588.000000	5.772128   
588.500000	5.677217   
589.000000	5.577463   
589.500000	5.467432   
590.000000	5.350856   
590.500000	5.235563   
591.000000	5.130112   
591.500000	5.033207   
592.000000	4.948283   
592.500000	4.868423   
593.000000	4.785301   
593.500000	4.698142   
594.000000	4.610750   
594.500000	4.522273   
595.000000	4.443769   
595.500000	4.375403   
596.000000	4.313528   
596.500000	4.254245   

