PE FL                   SPECTRUM    ASCII       PEDS        1.60        
  -1
DLD6E0~2.TXT
18/03/08
16:30:40.00
18/03/08
16:30:40.00


596.500000
1









LS55
350.00
11.00
2.90
SCAN
1
20
100
100
0
60
0
1
0
1
7
ON
600 350 
1 0 0
#HDR
-1
-1
#GR
NM

0.00002384185791015625
0.0
400.000000
0.500000
394
8
453.956404
5.944562
#DATA
400.000000	62.107999  
400.500000	67.249970  
401.000000	72.332782  
401.500000	77.426467  
402.000000	82.581548  
402.500000	87.870916  
403.000000	93.368389  
403.500000	99.072560  
404.000000	104.915573 
404.500000	110.891885 
405.000000	116.901677 
405.500000	122.968656 
406.000000	129.102410 
406.500000	135.293827 
407.000000	141.501665 
407.500000	147.744977 
408.000000	153.881757 
408.500000	160.000118 
409.000000	166.140041 
409.500000	172.411369 
410.000000	178.886292 
410.500000	185.587085 
411.000000	192.309019 
411.500000	199.026224 
412.000000	205.627292 
412.500000	212.123449 
413.000000	218.608953 
413.500000	225.191124 
414.000000	231.743744 
414.500000	238.415316 
415.000000	245.179672 
415.500000	251.988008 
416.000000	258.880541 
416.500000	265.897199 
417.000000	272.892937 
417.500000	279.954379 
418.000000	287.200092 
418.500000	294.625050 
419.000000	302.238748 
419.500000	309.931182 
420.000000	317.435715 
420.500000	324.657390 
421.000000	331.656200 
421.500000	338.423391 
422.000000	345.011528 
422.500000	351.390101 
423.000000	357.444701 
423.500000	363.124589 
424.000000	368.481023 
424.500000	373.496873 
425.000000	378.166210 
425.500000	382.552563 
426.000000	386.629230 
426.500000	390.512589 
427.000000	394.308718 
427.500000	398.178605 
428.000000	402.178285 
428.500000	406.381029 
429.000000	410.690672 
429.500000	415.019433 
430.000000	419.123765 
430.500000	422.856864 
431.000000	426.089693 
431.500000	428.959364 
432.000000	431.616479 
432.500000	434.244132 
433.000000	436.772447 
433.500000	439.118246 
434.000000	441.155895 
434.500000	442.923861 
435.000000	444.479447 
435.500000	445.960136 
436.000000	447.424827 
436.500000	448.818751 
437.000000	450.005543 
437.500000	450.977877 
438.000000	451.731483 
438.500000	452.359779 
439.000000	452.873488 
439.500000	453.286423 
440.000000	453.509139 
440.500000	453.571662 
441.000000	453.606472 
441.500000	453.689698 
442.000000	453.766050 
442.500000	453.914200 
443.000000	453.956404 
443.500000	453.775069 
444.000000	453.438820 
444.500000	452.980396 
445.000000	452.385652 
445.500000	451.745020 
446.000000	451.081008 
446.500000	450.280039 
447.000000	449.265960 
447.500000	447.948210 
448.000000	446.379525 
448.500000	444.681609 
449.000000	443.018238 
449.500000	441.532225 
450.000000	440.106783 
450.500000	438.593934 
451.000000	436.891493 
451.500000	434.956451 
452.000000	432.848076 
452.500000	430.832015 
453.000000	429.002914 
453.500000	427.312018 
454.000000	425.649391 
454.500000	423.947801 
455.000000	422.035125 
455.500000	419.976825 
456.000000	417.949617 
456.500000	415.953972 
457.000000	414.135504 
457.500000	412.501938 
458.000000	410.903878 
458.500000	409.201160 
459.000000	407.450786 
459.500000	405.575524 
460.000000	403.644285 
460.500000	401.806549 
461.000000	400.080140 
461.500000	398.391430 
462.000000	396.718652 
462.500000	395.054333 
463.000000	393.400465 
463.500000	391.891168 
464.000000	390.555439 
464.500000	389.381610 
465.000000	388.239708 
465.500000	387.114408 
466.000000	385.990644 
466.500000	384.980350 
467.000000	384.036153 
467.500000	383.195341 
468.000000	382.432637 
468.500000	381.668118 
469.000000	380.927044 
469.500000	380.292495 
470.000000	379.772312 
470.500000	379.326232 
471.000000	378.956513 
471.500000	378.562330 
472.000000	378.155967 
472.500000	377.712057 
473.000000	377.327688 
473.500000	376.965811 
474.000000	376.633761 
474.500000	376.245483 
475.000000	375.796525 
475.500000	375.203396 
476.000000	374.582580 
476.500000	373.979225 
477.000000	373.494302 
477.500000	373.099264 
478.000000	372.735470 
478.500000	372.258311 
479.000000	371.620612 
479.500000	370.830573 
480.000000	369.953330 
480.500000	369.060594 
481.000000	368.199648 
481.500000	367.358877 
482.000000	366.526454 
482.500000	365.678888 
483.000000	364.769767 
483.500000	363.770337 
484.000000	362.654801 
484.500000	361.413606 
485.000000	360.082974 
485.500000	358.699718 
486.000000	357.291425 
486.500000	355.908606 
487.000000	354.547944 
487.500000	353.202365 
488.000000	351.866468 
488.500000	350.483818 
489.000000	348.984093 
489.500000	347.350256 
490.000000	345.623711 
490.500000	343.831801 
491.000000	342.065263 
491.500000	340.371997 
492.000000	338.653244 
492.500000	336.891694 
493.000000	335.047403 
493.500000	333.060408 
494.000000	330.952694 
494.500000	328.882016 
495.000000	326.829020 
495.500000	324.837555 
496.000000	322.917730 
496.500000	320.944153 
497.000000	318.831283 
497.500000	316.601853 
498.000000	314.245595 
498.500000	311.864172 
499.000000	309.546898 
499.500000	307.301260 
500.000000	305.144456 
500.500000	303.032873 
501.000000	300.966315 
501.500000	298.949647 
502.000000	296.910086 
502.500000	294.799931 
503.000000	292.670260 
503.500000	290.461471 
504.000000	288.179022 
504.500000	285.945394 
505.000000	283.667362 
505.500000	281.331001 
506.000000	279.021589 
506.500000	276.713483 
507.000000	274.349211 
507.500000	272.016972 
508.000000	269.609221 
508.500000	267.037327 
509.000000	264.361988 
509.500000	261.614482 
510.000000	258.783241 
510.500000	255.947444 
511.000000	253.170124 
511.500000	250.410910 
512.000000	247.641942 
512.500000	244.789440 
513.000000	241.787242 
513.500000	238.608274 
514.000000	235.356489 
514.500000	232.039527 
515.000000	228.732962 
515.500000	225.444152 
516.000000	222.123234 
516.500000	218.734697 
517.000000	215.337284 
517.500000	211.891859 
518.000000	208.423355 
518.500000	204.919725 
519.000000	201.331933 
519.500000	197.644147 
520.000000	193.902847 
520.500000	190.164527 
521.000000	186.435292 
521.500000	182.757983 
522.000000	179.105223 
522.500000	175.460979 
523.000000	171.806131 
523.500000	168.212217 
524.000000	164.672956 
524.500000	161.227928 
525.000000	157.869309 
525.500000	154.539821 
526.000000	151.180317 
526.500000	147.832728 
527.000000	144.446620 
527.500000	141.058655 
528.000000	137.703898 
528.500000	134.343039 
529.000000	130.989108 
529.500000	127.709956 
530.000000	124.502297 
530.500000	121.387121 
531.000000	118.407172 
531.500000	115.524666 
532.000000	112.744182 
532.500000	110.042479 
533.000000	107.390278 
533.500000	104.775666 
534.000000	102.207735 
534.500000	99.652861  
535.000000	97.170578  
535.500000	94.748956  
536.000000	92.390691  
536.500000	90.092412  
537.000000	87.846326  
537.500000	85.641317  
538.000000	83.531790  
538.500000	81.505679  
539.000000	79.567987  
539.500000	77.694428  
540.000000	75.892398  
540.500000	74.149323  
541.000000	72.460417  
541.500000	70.809619  
542.000000	69.201531  
542.500000	67.599015  
543.000000	66.015510  
543.500000	64.457931  
544.000000	62.944305  
544.500000	61.461592  
545.000000	60.039047  
545.500000	58.658464  
546.000000	57.317878  
546.500000	56.036025  
547.000000	54.835850  
547.500000	53.697768  
548.000000	52.620118  
548.500000	51.574437  
549.000000	50.484783  
549.500000	49.370574  
550.000000	48.265114  
550.500000	47.171432  
551.000000	46.127952  
551.500000	45.139768  
552.000000	44.157655  
552.500000	43.201082  
553.000000	42.275523  
553.500000	41.376305  
554.000000	40.524489  
554.500000	39.707338  
555.000000	38.889164  
555.500000	38.086073  
556.000000	37.290624  
556.500000	36.522511  
557.000000	35.794235  
557.500000	35.081124  
558.000000	34.365062  
558.500000	33.651592  
559.000000	32.910486  
559.500000	32.163885  
560.000000	31.429002  
560.500000	30.712563  
561.000000	30.023525  
561.500000	29.375198  
562.000000	28.754635  
562.500000	28.158693  
563.000000	27.577707  
563.500000	27.014958  
564.000000	26.451404  
564.500000	25.886292  
565.000000	25.339829  
565.500000	24.805553  
566.000000	24.268838  
566.500000	23.744143  
567.000000	23.216722  
567.500000	22.685934  
568.000000	22.180827  
568.500000	21.705013  
569.000000	21.250931  
569.500000	20.815634  
570.000000	20.386553  
570.500000	19.946062  
571.000000	19.516785  
571.500000	19.090998  
572.000000	18.673543  
572.500000	18.265253  
573.000000	17.861189  
573.500000	17.458849  
574.000000	17.063372  
574.500000	16.653511  
575.000000	16.234036  
575.500000	15.824136  
576.000000	15.433474  
576.500000	15.075647  
577.000000	14.748758  
577.500000	14.427174  
578.000000	14.093217  
578.500000	13.747258  
579.000000	13.392748  
579.500000	13.056916  
580.000000	12.748112  
580.500000	12.460252  
581.000000	12.182118  
581.500000	11.900676  
582.000000	11.610323  
582.500000	11.314191  
583.000000	11.021698  
583.500000	10.738889  
584.000000	10.468581  
584.500000	10.218373  
585.000000	9.981828   
585.500000	9.750152   
586.000000	9.528323   
586.500000	9.318619   
587.000000	9.110185   
587.500000	8.907912   
588.000000	8.708557   
588.500000	8.508846   
589.000000	8.305200   
589.500000	8.109259   
590.000000	7.917702   
590.500000	7.733834   
591.000000	7.558730   
591.500000	7.397292   
592.000000	7.231668   
592.500000	7.069680   
593.000000	6.914620   
593.500000	6.759044   
594.000000	6.604453   
594.500000	6.463571   
595.000000	6.323772   
595.500000	6.189704   
596.000000	6.065164   
596.500000	5.944562   

