PE FL                   SPECTRUM    ASCII       PEDS        1.60        
  -1
DLD6F0~1.TXT
18/03/08
16:55:37.00
18/03/08
16:55:37.00


596.500000
1









LS55
350.00
11.00
2.90
SCAN
1
20
100
100
0
60
0
1
0
1
7
ON
600 350 
1 0 0
#HDR
-1
-1
#GR
NM

0.00002384185791015625
0.0
400.000000
0.500000
394
8
391.887011
5.968564
#DATA
400.000000	58.344999  
400.500000	63.501529  
401.000000	68.576695  
401.500000	73.632018  
402.000000	78.664249  
402.500000	83.701509  
403.000000	88.885898  
403.500000	94.157309  
404.000000	99.420232  
404.500000	104.713394 
405.000000	110.002082 
405.500000	115.263231 
406.000000	120.476454 
406.500000	125.615776 
407.000000	130.640232 
407.500000	135.564111 
408.000000	140.337963 
408.500000	145.009629 
409.000000	149.624608 
409.500000	154.379997 
410.000000	159.342150 
410.500000	164.581532 
411.000000	170.046521 
411.500000	175.741846 
412.000000	181.501315 
412.500000	187.332461 
413.000000	193.214852 
413.500000	199.254002 
414.000000	205.434576 
414.500000	211.794485 
415.000000	218.175426 
415.500000	224.450677 
416.000000	230.497868 
416.500000	236.289541 
417.000000	241.792228 
417.500000	247.182396 
418.000000	252.610138 
418.500000	258.143320 
419.000000	263.875142 
419.500000	269.795255 
420.000000	275.742320 
420.500000	281.687348 
421.000000	287.653504 
421.500000	293.481704 
422.000000	299.181582 
422.500000	304.688831 
423.000000	309.942949 
423.500000	314.939383 
424.000000	319.784436 
424.500000	324.409916 
425.000000	328.786193 
425.500000	332.800637 
426.000000	336.441576 
426.500000	339.737326 
427.000000	342.790439 
427.500000	345.665425 
428.000000	348.461524 
428.500000	351.135397 
429.000000	353.808531 
429.500000	356.541097 
430.000000	359.188977 
430.500000	361.685654 
431.000000	364.089387 
431.500000	366.415638 
432.000000	368.704808 
432.500000	370.977443 
433.000000	372.968463 
433.500000	374.563966 
434.000000	375.883747 
434.500000	377.036230 
435.000000	378.145760 
435.500000	379.361228 
436.000000	380.601934 
436.500000	381.742813 
437.000000	382.854523 
437.500000	384.050099 
438.000000	385.333082 
438.500000	386.646564 
439.000000	387.988944 
439.500000	389.184263 
440.000000	390.202200 
440.500000	391.027419 
441.000000	391.629892 
441.500000	391.887011 
442.000000	391.854821 
442.500000	391.603000 
443.000000	391.211790 
443.500000	390.844048 
444.000000	390.631075 
444.500000	390.539433 
445.000000	390.500903 
445.500000	390.451730 
446.000000	390.270050 
446.500000	389.932085 
447.000000	389.500138 
447.500000	389.138376 
448.000000	388.874043 
448.500000	388.721390 
449.000000	388.510608 
449.500000	388.120700 
450.000000	387.400635 
450.500000	386.403627 
451.000000	385.269582 
451.500000	384.170336 
452.000000	383.098001 
452.500000	382.055701 
453.000000	380.866556 
453.500000	379.487970 
454.000000	377.948616 
454.500000	376.410343 
455.000000	374.907658 
455.500000	373.593013 
456.000000	372.524804 
456.500000	371.622195 
457.000000	370.743467 
457.500000	369.797090 
458.000000	368.680782 
458.500000	367.459138 
459.000000	366.227810 
459.500000	365.094435 
460.000000	364.085868 
460.500000	363.145337 
461.000000	362.202329 
461.500000	361.284214 
462.000000	360.421051 
462.500000	359.578344 
463.000000	358.854269 
463.500000	358.207430 
464.000000	357.708057 
464.500000	357.360468 
465.000000	357.212019 
465.500000	357.127783 
466.000000	357.041284 
466.500000	356.848345 
467.000000	356.604191 
467.500000	356.255206 
468.000000	356.010722 
468.500000	355.943963 
469.000000	356.028156 
469.500000	356.168948 
470.000000	356.369218 
470.500000	356.488962 
471.000000	356.536465 
471.500000	356.620186 
472.000000	356.725785 
472.500000	356.824239 
473.000000	356.909803 
473.500000	356.953178 
474.000000	356.943584 
474.500000	357.023828 
475.000000	357.237847 
475.500000	357.496578 
476.000000	357.703124 
476.500000	357.761000 
477.000000	357.570637 
477.500000	357.224199 
478.000000	356.869327 
478.500000	356.485820 
479.000000	356.070832 
479.500000	355.590573 
480.000000	355.008687 
480.500000	354.328366 
481.000000	353.665786 
481.500000	353.013100 
482.000000	352.305711 
482.500000	351.508446 
483.000000	350.694492 
483.500000	349.882248 
484.000000	349.129439 
484.500000	348.514511 
485.000000	347.844834 
485.500000	347.007387 
486.000000	345.988330 
486.500000	344.846482 
487.000000	343.590560 
487.500000	342.452032 
488.000000	341.308670 
488.500000	340.158457 
489.000000	338.972188 
489.500000	337.736924 
490.000000	336.406857 
490.500000	335.130624 
491.000000	333.758800 
491.500000	332.344845 
492.000000	330.909068 
492.500000	329.404849 
493.000000	327.834949 
493.500000	326.279334 
494.000000	324.559220 
494.500000	322.735241 
495.000000	320.831407 
495.500000	318.890227 
496.000000	316.949781 
496.500000	315.097119 
497.000000	313.212087 
497.500000	311.281801 
498.000000	309.300322 
498.500000	307.288751 
499.000000	305.259242 
499.500000	303.296400 
500.000000	301.345502 
500.500000	299.439764 
501.000000	297.568652 
501.500000	295.725302 
502.000000	293.824495 
502.500000	291.931299 
503.000000	289.948217 
503.500000	287.894198 
504.000000	285.795039 
504.500000	283.673080 
505.000000	281.455446 
505.500000	279.232004 
506.000000	276.956707 
506.500000	274.693018 
507.000000	272.419902 
507.500000	270.093193 
508.000000	267.675552 
508.500000	265.161326 
509.000000	262.545270 
509.500000	259.912605 
510.000000	257.343504 
510.500000	254.760754 
511.000000	252.221753 
511.500000	249.611786 
512.000000	246.872189 
512.500000	243.961355 
513.000000	240.938054 
513.500000	237.711048 
514.000000	234.416605 
514.500000	231.107235 
515.000000	227.844638 
515.500000	224.609796 
516.000000	221.393002 
516.500000	218.122524 
517.000000	214.815560 
517.500000	211.497361 
518.000000	208.176193 
518.500000	204.813723 
519.000000	201.382097 
519.500000	197.888944 
520.000000	194.277711 
520.500000	190.645528 
521.000000	187.032559 
521.500000	183.435817 
522.000000	179.800338 
522.500000	176.174567 
523.000000	172.547316 
523.500000	168.982966 
524.000000	165.509078 
524.500000	162.125735 
525.000000	158.744910 
525.500000	155.360270 
526.000000	151.961140 
526.500000	148.549757 
527.000000	145.165350 
527.500000	141.859656 
528.000000	138.551794 
528.500000	135.208722 
529.000000	131.821338 
529.500000	128.412751 
530.000000	125.064761 
530.500000	121.871550 
531.000000	118.822573 
531.500000	115.923225 
532.000000	113.159475 
532.500000	110.469382 
533.000000	107.848624 
533.500000	105.300588 
534.000000	102.801373 
534.500000	100.299354 
535.000000	97.811627  
535.500000	95.319463  
536.000000	92.862417  
536.500000	90.476753  
537.000000	88.216337  
537.500000	86.050962  
538.000000	83.998576  
538.500000	82.035447  
539.000000	80.126140  
539.500000	78.247122  
540.000000	76.432460  
540.500000	74.647269  
541.000000	72.932721  
541.500000	71.287560  
542.000000	69.684874  
542.500000	68.103630  
543.000000	66.556602  
543.500000	64.989909  
544.000000	63.435283  
544.500000	61.932775  
545.000000	60.479831  
545.500000	59.079960  
546.000000	57.760644  
546.500000	56.510977  
547.000000	55.326616  
547.500000	54.203774  
548.000000	53.132669  
548.500000	52.073223  
549.000000	50.981375  
549.500000	49.898213  
550.000000	48.809311  
550.500000	47.715108  
551.000000	46.649647  
551.500000	45.624725  
552.000000	44.609578  
552.500000	43.642958  
553.000000	42.733648  
553.500000	41.856758  
554.000000	41.006866  
554.500000	40.196425  
555.000000	39.399602  
555.500000	38.610218  
556.000000	37.837211  
556.500000	37.060514  
557.000000	36.275691  
557.500000	35.511832  
558.000000	34.779718  
558.500000	34.066094  
559.000000	33.368357  
559.500000	32.659330  
560.000000	31.937460  
560.500000	31.207562  
561.000000	30.503079  
561.500000	29.835556  
562.000000	29.203386  
562.500000	28.583560  
563.000000	27.978591  
563.500000	27.368422  
564.000000	26.770673  
564.500000	26.206100  
565.000000	25.674288  
565.500000	25.150952  
566.000000	24.638052  
566.500000	24.122259  
567.000000	23.599140  
567.500000	23.070270  
568.000000	22.540921  
568.500000	22.018529  
569.000000	21.495624  
569.500000	20.996930  
570.000000	20.521559  
570.500000	20.067478  
571.000000	19.630771  
571.500000	19.217606  
572.000000	18.799337  
572.500000	18.384369  
573.000000	17.968435  
573.500000	17.560757  
574.000000	17.159994  
574.500000	16.774884  
575.000000	16.385665  
575.500000	16.003603  
576.000000	15.618338  
576.500000	15.236290  
577.000000	14.869132  
577.500000	14.519672  
578.000000	14.174418  
578.500000	13.849331  
579.000000	13.528396  
579.500000	13.209502  
580.000000	12.894140  
580.500000	12.586941  
581.000000	12.267827  
581.500000	11.958419  
582.000000	11.662594  
582.500000	11.377528  
583.000000	11.101138  
583.500000	10.839803  
584.000000	10.571054  
584.500000	10.301542  
585.000000	10.039097  
585.500000	9.785165   
586.000000	9.542195   
586.500000	9.326444   
587.000000	9.115631   
587.500000	8.910647   
588.000000	8.710972   
588.500000	8.505984   
589.000000	8.304239   
589.500000	8.125919   
590.000000	7.950164   
590.500000	7.780157   
591.000000	7.613414   
591.500000	7.443882   
592.000000	7.276417   
592.500000	7.122403   
593.000000	6.977656   
593.500000	6.843327   
594.000000	6.709015   
594.500000	6.569482   
595.000000	6.426315   
595.500000	6.269509   
596.000000	6.112085   
596.500000	5.968564   

