PE FL                   SPECTRUM    ASCII       PEDS        1.60        
  -1
DLDEF4~1.TXT
18/03/08
15:16:00.00
18/03/08
15:16:00.00


596.500000
1









LS55
350.00
11.00
2.90
SCAN
1
20
100
100
0
60
0
1
0
1
7
ON
600 350 
1 0 0
#HDR
-1
-1
#GR
NM

0.00002384185791015625
0.0
400.000000
0.500000
394
8
726.824193
4.892898
#DATA
400.000000	73.127999  
400.500000	80.112564  
401.000000	86.923517  
401.500000	93.569167  
402.000000	100.145481 
402.500000	106.840633 
403.000000	113.814410 
403.500000	121.095022 
404.000000	128.628086 
404.500000	136.366384 
405.000000	144.251666 
405.500000	152.341341 
406.000000	160.654458 
406.500000	169.180415 
407.000000	177.908979 
407.500000	186.825105 
408.000000	195.785075 
408.500000	204.777304 
409.000000	213.916747 
409.500000	223.382921 
410.000000	233.330461 
410.500000	243.797207 
411.000000	254.677435 
411.500000	265.851899 
412.000000	277.267103 
412.500000	288.971258 
413.000000	301.112629 
413.500000	313.707096 
414.000000	326.645329 
414.500000	339.730096 
415.000000	352.770997 
415.500000	365.616822 
416.000000	378.410002 
416.500000	391.171966 
417.000000	403.961548 
417.500000	416.821227 
418.000000	429.669423 
418.500000	442.384712 
419.000000	455.207164 
419.500000	467.973578 
420.000000	480.813976 
420.500000	493.788203 
421.000000	506.725892 
421.500000	519.319030 
422.000000	531.654624 
422.500000	543.477762 
423.000000	554.849036 
423.500000	565.843345 
424.000000	576.485214 
424.500000	586.736659 
425.000000	596.656581 
425.500000	606.017135 
426.000000	614.892442 
426.500000	623.204584 
427.000000	631.044829 
427.500000	638.553414 
428.000000	645.846888 
428.500000	652.886079 
429.000000	659.782082 
429.500000	666.255163 
430.000000	672.172825 
430.500000	677.507361 
431.000000	682.452027 
431.500000	687.019172 
432.000000	691.588304 
432.500000	696.018234 
433.000000	700.284368 
433.500000	704.416493 
434.000000	708.294165 
434.500000	711.743096 
435.000000	714.928913 
435.500000	717.666253 
436.000000	719.913281 
436.500000	721.893654 
437.000000	723.569156 
437.500000	724.906036 
438.000000	726.027506 
438.500000	726.702994 
439.000000	726.824193 
439.500000	726.638478 
440.000000	726.094467 
440.500000	725.398072 
441.000000	724.648535 
441.500000	723.717220 
442.000000	722.462132 
442.500000	720.800115 
443.000000	718.617002 
443.500000	715.988952 
444.000000	713.082880 
444.500000	710.035351 
445.000000	706.929656 
445.500000	703.814107 
446.000000	700.720608 
446.500000	697.574588 
447.000000	694.403365 
447.500000	691.066808 
448.000000	687.477822 
448.500000	683.628245 
449.000000	679.602716 
449.500000	675.315891 
450.000000	670.838948 
450.500000	666.180595 
451.000000	661.287150 
451.500000	656.218828 
452.000000	650.995500 
452.500000	645.648732 
453.000000	640.301721 
453.500000	634.951457 
454.000000	629.580122 
454.500000	624.199557 
455.000000	618.744748 
455.500000	613.186145 
456.000000	607.584662 
456.500000	601.866755 
457.000000	596.052846 
457.500000	590.195967 
458.000000	584.288341 
458.500000	578.278309 
459.000000	572.320405 
459.500000	566.445199 
460.000000	560.665794 
460.500000	555.128708 
461.000000	549.856740 
461.500000	544.756327 
462.000000	539.769011 
462.500000	534.854712 
463.000000	529.916938 
463.500000	525.093179 
464.000000	520.411718 
464.500000	515.891377 
465.000000	511.464069 
465.500000	507.089757 
466.000000	502.715485 
466.500000	498.384670 
467.000000	494.062967 
467.500000	489.700682 
468.000000	485.328525 
468.500000	480.987695 
469.000000	476.747979 
469.500000	472.648055 
470.000000	468.722467 
470.500000	464.893794 
471.000000	461.190546 
471.500000	457.594482 
472.000000	454.137465 
472.500000	450.713297 
473.000000	447.355461 
473.500000	443.897624 
474.000000	440.319384 
474.500000	436.688624 
475.000000	433.091967 
475.500000	429.517687 
476.000000	426.079881 
476.500000	422.680836 
477.000000	419.272165 
477.500000	415.860253 
478.000000	412.406224 
478.500000	408.968962 
479.000000	405.653675 
479.500000	402.396719 
480.000000	399.166305 
480.500000	395.927585 
481.000000	392.565122 
481.500000	389.112584 
482.000000	385.642755 
482.500000	382.174991 
483.000000	378.796970 
483.500000	375.531499 
484.000000	372.337004 
484.500000	369.174972 
485.000000	365.961334 
485.500000	362.708376 
486.000000	359.480428 
486.500000	356.308956 
487.000000	353.225786 
487.500000	350.270368 
488.000000	347.308722 
488.500000	344.268174 
489.000000	341.150969 
489.500000	337.959677 
490.000000	334.659864 
490.500000	331.401885 
491.000000	328.169641 
491.500000	324.932873 
492.000000	321.731677 
492.500000	318.582695 
493.000000	315.357298 
493.500000	312.126511 
494.000000	308.872488 
494.500000	305.585291 
495.000000	302.334514 
495.500000	299.127107 
496.000000	295.860255 
496.500000	292.601543 
497.000000	289.305488 
497.500000	285.936112 
498.000000	282.604637 
498.500000	279.403478 
499.000000	276.296867 
499.500000	273.260205 
500.000000	270.267358 
500.500000	267.196694 
501.000000	264.063718 
501.500000	260.918694 
502.000000	257.876569 
502.500000	254.965944 
503.000000	252.255389 
503.500000	249.665285 
504.000000	247.094086 
504.500000	244.441436 
505.000000	241.735761 
505.500000	238.915938 
506.000000	236.025630 
506.500000	233.105255 
507.000000	230.247705 
507.500000	227.468592 
508.000000	224.788483 
508.500000	222.178956 
509.000000	219.634422 
509.500000	217.010662 
510.000000	214.286863 
510.500000	211.469801 
511.000000	208.583743 
511.500000	205.657868 
512.000000	202.796988 
512.500000	199.893251 
513.000000	196.926174 
513.500000	193.902100 
514.000000	190.809670 
514.500000	187.652242 
515.000000	184.505987 
515.500000	181.371629 
516.000000	178.234479 
516.500000	175.120380 
517.000000	172.041246 
517.500000	169.025087 
518.000000	166.027965 
518.500000	163.042345 
519.000000	159.955205 
519.500000	156.748767 
520.000000	153.458405 
520.500000	150.159924 
521.000000	146.888496 
521.500000	143.733718 
522.000000	140.632962 
522.500000	137.563218 
523.000000	134.506785 
523.500000	131.433317 
524.000000	128.352295 
524.500000	125.305460 
525.000000	122.278663 
525.500000	119.329396 
526.000000	116.486873 
526.500000	113.721059 
527.000000	111.037709 
527.500000	108.412255 
528.000000	105.759510 
528.500000	103.103082 
529.000000	100.478230 
529.500000	97.902012  
530.000000	95.401274  
530.500000	93.011086  
531.000000	90.682673  
531.500000	88.404278  
532.000000	86.201073  
532.500000	84.059039  
533.000000	81.962774  
533.500000	79.911648  
534.000000	77.875768  
534.500000	75.841762  
535.000000	73.834015  
535.500000	71.862241  
536.000000	69.966287  
536.500000	68.149273  
537.000000	66.405536  
537.500000	64.743504  
538.000000	63.153603  
538.500000	61.608523  
539.000000	60.122799  
539.500000	58.681610  
540.000000	57.283199  
540.500000	55.948188  
541.000000	54.665368  
541.500000	53.417008  
542.000000	52.186542  
542.500000	50.963747  
543.000000	49.741305  
543.500000	48.527866  
544.000000	47.357711  
544.500000	46.236149  
545.000000	45.146244  
545.500000	44.086828  
546.000000	43.058988  
546.500000	42.056755  
547.000000	41.119330  
547.500000	40.248022  
548.000000	39.423170  
548.500000	38.612304  
549.000000	37.781425  
549.500000	36.917571  
550.000000	36.064804  
550.500000	35.238191  
551.000000	34.456520  
551.500000	33.711682  
552.000000	32.979601  
552.500000	32.261029  
553.000000	31.572096  
553.500000	30.910390  
554.000000	30.269863  
554.500000	29.646746  
555.000000	29.022080  
555.500000	28.405637  
556.000000	27.797041  
556.500000	27.220733  
557.000000	26.655034  
557.500000	26.092301  
558.000000	25.526140  
558.500000	24.985553  
559.000000	24.450987  
559.500000	23.944149  
560.000000	23.455150  
560.500000	22.961960  
561.000000	22.456252  
561.500000	21.971479  
562.000000	21.492912  
562.500000	21.036796  
563.000000	20.601122  
563.500000	20.177930  
564.000000	19.740626  
564.500000	19.303065  
565.000000	18.869433  
565.500000	18.435832  
566.000000	18.015054  
566.500000	17.629158  
567.000000	17.263528  
567.500000	16.913059  
568.000000	16.578437  
568.500000	16.242750  
569.000000	15.898211  
569.500000	15.558255  
570.000000	15.216465  
570.500000	14.873655  
571.000000	14.542747  
571.500000	14.215422  
572.000000	13.898343  
572.500000	13.603824  
573.000000	13.320391  
573.500000	13.045649  
574.000000	12.758112  
574.500000	12.467774  
575.000000	12.185036  
575.500000	11.912987  
576.000000	11.641283  
576.500000	11.389884  
577.000000	11.135047  
577.500000	10.884242  
578.000000	10.658456  
578.500000	10.447463  
579.000000	10.224647  
579.500000	10.003980  
580.000000	9.769097   
580.500000	9.521202   
581.000000	9.297839   
581.500000	9.104370   
582.000000	8.919891   
582.500000	8.732046   
583.000000	8.538948   
583.500000	8.331463   
584.000000	8.132511   
584.500000	7.951163   
585.000000	7.785670   
585.500000	7.630202   
586.000000	7.482520   
586.500000	7.330616   
587.000000	7.177598   
587.500000	7.025075   
588.000000	6.872430   
588.500000	6.722170   
589.000000	6.578746   
589.500000	6.441624   
590.000000	6.316792   
590.500000	6.199654   
591.000000	6.078993   
591.500000	5.956193   
592.000000	5.829033   
592.500000	5.703856   
593.000000	5.589543   
593.500000	5.484850   
594.000000	5.383949   
594.500000	5.287974   
595.000000	5.190375   
595.500000	5.088196   
596.000000	4.988355   
596.500000	4.892898   

