PE FL                   SPECTRUM    ASCII       PEDS        1.60        
  -1
DLDAF4~1.TXT
18/03/08
15:10:59.00
18/03/08
15:10:59.00


596.500000
1









LS55
350.00
11.00
2.90
SCAN
1
20
100
100
0
60
0
1
0
1
7
ON
600 350 
1 0 0
#HDR
-1
-1
#GR
NM

0.00002384185791015625
0.0
400.000000
0.500000
394
8
770.115973
4.764917
#DATA
400.000000	75.011000  
400.500000	82.404926  
401.000000	89.687601  
401.500000	96.916571  
402.000000	104.161160 
402.500000	111.541645 
403.000000	119.256158 
403.500000	127.333474 
404.000000	135.753810 
404.500000	144.574841 
405.000000	153.698313 
405.500000	163.101981 
406.000000	172.667714 
406.500000	182.295863 
407.000000	191.832781 
407.500000	201.368271 
408.000000	210.883333 
408.500000	220.591987 
409.000000	230.618536 
409.500000	241.239665 
410.000000	252.327428 
410.500000	263.911905 
411.000000	275.791188 
411.500000	287.989299 
412.000000	300.445046 
412.500000	313.391682 
413.000000	326.782927 
413.500000	340.552806 
414.000000	354.384365 
414.500000	368.142754 
415.000000	381.748942 
415.500000	395.310460 
416.000000	409.011608 
416.500000	422.922656 
417.000000	436.817478 
417.500000	450.565020 
418.000000	464.228087 
418.500000	477.725605 
419.000000	491.326695 
419.500000	505.002188 
420.000000	518.602774 
420.500000	531.863377 
421.000000	544.859380 
421.500000	557.344796 
422.000000	569.386666 
422.500000	580.918916 
423.000000	591.937288 
423.500000	602.330013 
424.000000	612.417711 
424.500000	622.204475 
425.000000	631.818648 
425.500000	641.168772 
426.000000	650.240297 
426.500000	658.944412 
427.000000	667.419382 
427.500000	675.667065 
428.000000	683.702652 
428.500000	691.452811 
429.000000	698.841023 
429.500000	705.838089 
430.000000	712.523433 
430.500000	718.918365 
431.000000	724.984352 
431.500000	730.702924 
432.000000	736.071073 
432.500000	741.066966 
433.000000	745.735436 
433.500000	750.142209 
434.000000	754.136754 
434.500000	757.627366 
435.000000	760.641460 
435.500000	763.134214 
436.000000	765.211073 
436.500000	766.998616 
437.000000	768.472058 
437.500000	769.473294 
438.000000	770.032507 
438.500000	770.115973 
439.000000	769.838479 
439.500000	769.414748 
440.000000	768.778973 
440.500000	767.729329 
441.000000	766.241030 
441.500000	764.283602 
442.000000	761.701649 
442.500000	758.784520 
443.000000	755.570503 
443.500000	751.904743 
444.000000	748.009584 
444.500000	744.010295 
445.000000	739.750411 
445.500000	735.525206 
446.000000	731.341258 
446.500000	726.996895 
447.000000	722.550651 
447.500000	717.989467 
448.000000	713.218121 
448.500000	708.366252 
449.000000	703.431666 
449.500000	698.403591 
450.000000	693.259832 
450.500000	687.946990 
451.000000	682.388253 
451.500000	676.611292 
452.000000	670.548472 
452.500000	664.429315 
453.000000	658.254333 
453.500000	652.122757 
454.000000	646.068820 
454.500000	640.125523 
455.000000	634.207450 
455.500000	628.226956 
456.000000	622.029527 
456.500000	615.755009 
457.000000	609.443649 
457.500000	603.176105 
458.000000	597.037839 
458.500000	590.823191 
459.000000	584.350059 
459.500000	577.768299 
460.000000	571.119953 
460.500000	564.615567 
461.000000	558.595969 
461.500000	553.016899 
462.000000	547.682728 
462.500000	542.514828 
463.000000	537.392983 
463.500000	532.268430 
464.000000	527.234753 
464.500000	522.323793 
465.000000	517.418949 
465.500000	512.552531 
466.000000	507.787143 
466.500000	503.085560 
467.000000	498.438322 
467.500000	493.970768 
468.000000	489.608781 
468.500000	485.256736 
469.000000	480.978408 
469.500000	476.736239 
470.000000	472.394245 
470.500000	468.152714 
471.000000	464.030291 
471.500000	459.991718 
472.000000	456.130654 
472.500000	452.410955 
473.000000	448.681566 
473.500000	445.050249 
474.000000	441.497641 
474.500000	437.974542 
475.000000	434.419093 
475.500000	430.812242 
476.000000	427.002249 
476.500000	423.099803 
477.000000	419.248217 
477.500000	415.521531 
478.000000	411.883754 
478.500000	408.392075 
479.000000	404.928429 
479.500000	401.471145 
480.000000	398.063231 
480.500000	394.716902 
481.000000	391.271298 
481.500000	387.770841 
482.000000	384.178659 
482.500000	380.496789 
483.000000	376.826962 
483.500000	373.278186 
484.000000	369.861686 
484.500000	366.579817 
485.000000	363.306719 
485.500000	360.024348 
486.000000	356.712351 
486.500000	353.417514 
487.000000	350.096841 
487.500000	346.769046 
488.000000	343.374306 
488.500000	339.850863 
489.000000	336.278041 
489.500000	332.737847 
490.000000	329.214725 
490.500000	325.779276 
491.000000	322.423099 
491.500000	319.068594 
492.000000	315.710569 
492.500000	312.408357 
493.000000	309.057350 
493.500000	305.669987 
494.000000	302.269026 
494.500000	298.924542 
495.000000	295.643719 
495.500000	292.449196 
496.000000	289.273902 
496.500000	286.049256 
497.000000	282.702810 
497.500000	279.338273 
498.000000	276.040986 
498.500000	272.841472 
499.000000	269.735358 
499.500000	266.664649 
500.000000	263.540048 
500.500000	260.368806 
501.000000	257.278923 
501.500000	254.318479 
502.000000	251.467011 
502.500000	248.686714 
503.000000	245.922470 
503.500000	243.125942 
504.000000	240.322096 
504.500000	237.593754 
505.000000	234.893276 
505.500000	232.147386 
506.000000	229.367493 
506.500000	226.571778 
507.000000	223.782917 
507.500000	221.058410 
508.000000	218.397680 
508.500000	215.716133 
509.000000	212.994347 
509.500000	210.233132 
510.000000	207.471207 
510.500000	204.710175 
511.000000	201.976255 
511.500000	199.228422 
512.000000	196.454122 
512.500000	193.573255 
513.000000	190.642711 
513.500000	187.598712 
514.000000	184.476587 
514.500000	181.337237 
515.000000	178.209529 
515.500000	175.073065 
516.000000	172.038953 
516.500000	169.054050 
517.000000	166.093569 
517.500000	163.164956 
518.000000	160.210291 
518.500000	157.179609 
519.000000	154.145405 
519.500000	151.080439 
520.000000	147.965270 
520.500000	144.871917 
521.000000	141.814245 
521.500000	138.775383 
522.000000	135.731944 
522.500000	132.675585 
523.000000	129.567753 
523.500000	126.434585 
524.000000	123.366191 
524.500000	120.383096 
525.000000	117.496753 
525.500000	114.736754 
526.000000	112.027235 
526.500000	109.332440 
527.000000	106.710033 
527.500000	104.126917 
528.000000	101.552029 
528.500000	99.025564  
529.000000	96.491344  
529.500000	93.972079  
530.000000	91.522705  
530.500000	89.141266  
531.000000	86.834847  
531.500000	84.655027  
532.000000	82.562807  
532.500000	80.540496  
533.000000	78.549588  
533.500000	76.564757  
534.000000	74.611672  
534.500000	72.679057  
535.000000	70.780124  
535.500000	68.938799  
536.000000	67.162232  
536.500000	65.423737  
537.000000	63.765760  
537.500000	62.161894  
538.000000	60.615856  
538.500000	59.119880  
539.000000	57.681154  
539.500000	56.268728  
540.000000	54.915248  
540.500000	53.612740  
541.000000	52.358881  
541.500000	51.122482  
542.000000	49.906861  
542.500000	48.706433  
543.000000	47.515874  
543.500000	46.360513  
544.000000	45.263043  
544.500000	44.199305  
545.000000	43.148468  
545.500000	42.123615  
546.000000	41.103022  
546.500000	40.124397  
547.000000	39.209878  
547.500000	38.354078  
548.000000	37.529563  
548.500000	36.726209  
549.000000	35.908373  
549.500000	35.104545  
550.000000	34.326528  
550.500000	33.577384  
551.000000	32.853294  
551.500000	32.144454  
552.000000	31.430107  
552.500000	30.732746  
553.000000	30.069251  
553.500000	29.429442  
554.000000	28.816829  
554.500000	28.215993  
555.000000	27.622941  
555.500000	27.044683  
556.000000	26.489259  
556.500000	25.954948  
557.000000	25.439350  
557.500000	24.908748  
558.000000	24.377535  
558.500000	23.854329  
559.000000	23.334178  
559.500000	22.830114  
560.000000	22.345489  
560.500000	21.854326  
561.000000	21.372907  
561.500000	20.907264  
562.000000	20.449264  
562.500000	20.017338  
563.000000	19.618870  
563.500000	19.225960  
564.000000	18.852206  
564.500000	18.474160  
565.000000	18.085882  
565.500000	17.698384  
566.000000	17.329020  
566.500000	16.954299  
567.000000	16.594114  
567.500000	16.235828  
568.000000	15.879539  
568.500000	15.527675  
569.000000	15.201398  
569.500000	14.880871  
570.000000	14.566421  
570.500000	14.254601  
571.000000	13.946443  
571.500000	13.646203  
572.000000	13.367839  
572.500000	13.098338  
573.000000	12.815852  
573.500000	12.521369  
574.000000	12.224284  
574.500000	11.935258  
575.000000	11.664227  
575.500000	11.415958  
576.000000	11.180675  
576.500000	10.953433  
577.000000	10.727673  
577.500000	10.505497  
578.000000	10.286799  
578.500000	10.069807  
579.000000	9.852333   
579.500000	9.634202   
580.000000	9.403620   
580.500000	9.178313   
581.000000	8.960711   
581.500000	8.750949   
582.000000	8.551013   
582.500000	8.372644   
583.000000	8.194806   
583.500000	8.014203   
584.000000	7.835686   
584.500000	7.660278   
585.000000	7.477327   
585.500000	7.301110   
586.000000	7.135995   
586.500000	6.980652   
587.000000	6.842810   
587.500000	6.724697   
588.000000	6.612475   
588.500000	6.496676   
589.000000	6.381100   
589.500000	6.256782   
590.000000	6.124338   
590.500000	5.989616   
591.000000	5.856327   
591.500000	5.724842   
592.000000	5.606822   
592.500000	5.501640   
593.000000	5.404811   
593.500000	5.311206   
594.000000	5.219397   
594.500000	5.122285   
595.000000	5.028649   
595.500000	4.939585   
596.000000	4.851630   
596.500000	4.764917   

