PE FL                   SPECTRUM    ASCII       PEDS        1.60        
  -1
DLE6EC~1.TXT
18/03/07
17:51:54.00
18/03/07
17:51:54.00


596.500000
1









LS55
350.00
11.00
2.90
SCAN
1
20
100
100
0
60
0
1
0
1
7
ON
600 350 
1 0 0
#HDR
-1
-1
#GR
NM

0.00002384185791015625
0.0
400.000000
0.500000
394
8
338.496218
4.170032
#DATA
400.000000	66.631999  
400.500000	72.426891  
401.000000	77.904129  
401.500000	83.025980  
402.000000	87.892697  
402.500000	92.683665  
403.000000	97.624739  
403.500000	102.754839 
404.000000	108.001825 
404.500000	113.388670 
405.000000	118.879305 
405.500000	124.431202 
406.000000	129.992172 
406.500000	135.430841 
407.000000	140.660811 
407.500000	145.730461 
408.000000	150.659457 
408.500000	155.569965 
409.000000	160.608725 
409.500000	165.859223 
410.000000	171.261820 
410.500000	176.695835 
411.000000	181.960061 
411.500000	186.974000 
412.000000	191.796209 
412.500000	196.645442 
413.000000	201.691838 
413.500000	206.925741 
414.000000	212.244741 
414.500000	217.570767 
415.000000	222.762111 
415.500000	227.841555 
416.000000	232.840532 
416.500000	237.710956 
417.000000	242.387078 
417.500000	246.993846 
418.000000	251.606737 
418.500000	256.373768 
419.000000	261.402327 
419.500000	266.619518 
420.000000	271.860673 
420.500000	277.054559 
421.000000	282.087312 
421.500000	286.891688 
422.000000	291.477762 
422.500000	295.828634 
423.000000	299.905778 
423.500000	303.798771 
424.000000	307.506788 
424.500000	311.024008 
425.000000	314.367211 
425.500000	317.474563 
426.000000	320.330228 
426.500000	322.964615 
427.000000	325.422377 
427.500000	327.713149 
428.000000	329.772711 
428.500000	331.478694 
429.000000	332.867454 
429.500000	334.018641 
430.000000	335.130463 
430.500000	336.253086 
431.000000	337.347156 
431.500000	338.133271 
432.000000	338.496218 
432.500000	338.353068 
433.000000	337.869634 
433.500000	337.203013 
434.000000	336.555517 
434.500000	336.065581 
435.000000	335.851535 
435.500000	335.863778 
436.000000	336.138100 
436.500000	336.453065 
437.000000	336.592432 
437.500000	336.487981 
438.000000	336.217758 
438.500000	335.836761 
439.000000	335.509792 
439.500000	335.202030 
440.000000	334.812913 
440.500000	334.212396 
441.000000	333.404171 
441.500000	332.417323 
442.000000	331.407297 
442.500000	330.409941 
443.000000	329.426435 
443.500000	328.385288 
444.000000	327.229377 
444.500000	325.963592 
445.000000	324.670034 
445.500000	323.454456 
446.000000	322.323065 
446.500000	321.252598 
447.000000	320.190762 
447.500000	319.070397 
448.000000	317.884273 
448.500000	316.766234 
449.000000	315.645078 
449.500000	314.396317 
450.000000	312.985884 
450.500000	311.367193 
451.000000	309.568690 
451.500000	307.806383 
452.000000	306.180032 
452.500000	304.646324 
453.000000	303.196260 
453.500000	301.672461 
454.000000	299.918436 
454.500000	297.919800 
455.000000	295.820852 
455.500000	293.662931 
456.000000	291.587789 
456.500000	289.612733 
457.000000	287.731935 
457.500000	285.871979 
458.000000	284.048029 
458.500000	282.248774 
459.000000	280.512527 
459.500000	278.857552 
460.000000	277.318319 
460.500000	275.749947 
461.000000	274.094316 
461.500000	272.342658 
462.000000	270.440998 
462.500000	268.415704 
463.000000	266.497203 
463.500000	264.778846 
464.000000	263.296094 
464.500000	262.144581 
465.000000	261.206513 
465.500000	260.300953 
466.000000	259.515870 
466.500000	258.756224 
467.000000	257.959753 
467.500000	257.192340 
468.000000	256.474474 
468.500000	255.686880 
469.000000	254.889882 
469.500000	254.066882 
470.000000	253.225638 
470.500000	252.409630 
471.000000	251.681868 
471.500000	250.999319 
472.000000	250.339626 
472.500000	249.665403 
473.000000	248.988218 
473.500000	248.324877 
474.000000	247.740112 
474.500000	247.263895 
475.000000	246.920535 
475.500000	246.694733 
476.000000	246.538408 
476.500000	246.379037 
477.000000	246.120338 
477.500000	245.674697 
478.000000	245.039403 
478.500000	244.243945 
479.000000	243.353131 
479.500000	242.461334 
480.000000	241.624273 
480.500000	240.860398 
481.000000	240.158271 
481.500000	239.508365 
482.000000	238.820626 
482.500000	238.003015 
483.000000	237.077315 
483.500000	236.095185 
484.000000	235.100500 
484.500000	234.179006 
485.000000	233.285838 
485.500000	232.338870 
486.000000	231.360739 
486.500000	230.355718 
487.000000	229.333677 
487.500000	228.296352 
488.000000	227.220959 
488.500000	226.075520 
489.000000	224.882400 
489.500000	223.639323 
490.000000	222.448442 
490.500000	221.277377 
491.000000	220.105659 
491.500000	218.938411 
492.000000	217.745080 
492.500000	216.472442 
493.000000	215.199817 
493.500000	213.896831 
494.000000	212.560682 
494.500000	211.228317 
495.000000	209.890637 
495.500000	208.469997 
496.000000	206.961391 
496.500000	205.392723 
497.000000	203.729906 
497.500000	202.053430 
498.000000	200.431270 
498.500000	198.850239 
499.000000	197.300457 
499.500000	195.854044 
500.000000	194.470322 
500.500000	193.138422 
501.000000	191.880271 
501.500000	190.652861 
502.000000	189.418391 
502.500000	188.173153 
503.000000	186.919405 
503.500000	185.615960 
504.000000	184.295276 
504.500000	182.921394 
505.000000	181.531033 
505.500000	180.089620 
506.000000	178.662368 
506.500000	177.226430 
507.000000	175.810016 
507.500000	174.365550 
508.000000	172.896306 
508.500000	171.377758 
509.000000	169.835221 
509.500000	168.276221 
510.000000	166.723018 
510.500000	165.143729 
511.000000	163.520824 
511.500000	161.824486 
512.000000	160.020005 
512.500000	158.122991 
513.000000	156.120186 
513.500000	154.034202 
514.000000	151.886029 
514.500000	149.723539 
515.000000	147.541534 
515.500000	145.366297 
516.000000	143.188382 
516.500000	141.006529 
517.000000	138.828990 
517.500000	136.661418 
518.000000	134.490495 
518.500000	132.299203 
519.000000	130.040468 
519.500000	127.708046 
520.000000	125.301959 
520.500000	122.847529 
521.000000	120.401892 
521.500000	118.012792 
522.000000	115.680486 
522.500000	113.384846 
523.000000	111.115601 
523.500000	108.856842 
524.000000	106.582903 
524.500000	104.324404 
525.000000	102.101661 
525.500000	99.883482  
526.000000	97.684744  
526.500000	95.531365  
527.000000	93.381391  
527.500000	91.250209  
528.000000	89.152630  
528.500000	87.045539  
529.000000	84.926786  
529.500000	82.870132  
530.000000	80.862580  
530.500000	78.936779  
531.000000	77.114061  
531.500000	75.360440  
532.000000	73.625921  
532.500000	71.924960  
533.000000	70.252423  
533.500000	68.601591  
534.000000	66.976574  
534.500000	65.377641  
535.000000	63.772944  
535.500000	62.169223  
536.000000	60.598755  
536.500000	59.091635  
537.000000	57.686443  
537.500000	56.363292  
538.000000	55.103082  
538.500000	53.876843  
539.000000	52.646264  
539.500000	51.410870  
540.000000	50.208821  
540.500000	49.015647  
541.000000	47.850758  
541.500000	46.742460  
542.000000	45.670277  
542.500000	44.608398  
543.000000	43.602584  
543.500000	42.604292  
544.000000	41.618278  
544.500000	40.673711  
545.000000	39.771486  
545.500000	38.887581  
546.000000	38.050168  
546.500000	37.236972  
547.000000	36.438005  
547.500000	35.647472  
548.000000	34.886050  
548.500000	34.133870  
549.000000	33.411923  
549.500000	32.727112  
550.000000	32.066619  
550.500000	31.418507  
551.000000	30.787750  
551.500000	30.151046  
552.000000	29.502651  
552.500000	28.866435  
553.000000	28.257152  
553.500000	27.682016  
554.000000	27.153796  
554.500000	26.640029  
555.000000	26.123807  
555.500000	25.608185  
556.000000	25.083935  
556.500000	24.570768  
557.000000	24.093115  
557.500000	23.622032  
558.000000	23.146523  
558.500000	22.663796  
559.000000	22.170143  
559.500000	21.664244  
560.000000	21.171429  
560.500000	20.693163  
561.000000	20.230326  
561.500000	19.781097  
562.000000	19.350496  
562.500000	18.941383  
563.000000	18.557143  
563.500000	18.199885  
564.000000	17.851281  
564.500000	17.496578  
565.000000	17.135380  
565.500000	16.772369  
566.000000	16.393661  
566.500000	16.028000  
567.000000	15.675227  
567.500000	15.329661  
568.000000	14.989231  
568.500000	14.663093  
569.000000	14.341195  
569.500000	14.028433  
570.000000	13.721743  
570.500000	13.427076  
571.000000	13.144022  
571.500000	12.876460  
572.000000	12.617192  
572.500000	12.351327  
573.000000	12.072574  
573.500000	11.789970  
574.000000	11.510065  
574.500000	11.236517  
575.000000	10.981185  
575.500000	10.734341  
576.000000	10.488256  
576.500000	10.244930  
577.000000	10.004891  
577.500000	9.773079   
578.000000	9.557059   
578.500000	9.346249   
579.000000	9.140969   
579.500000	8.935270   
580.000000	8.725090   
580.500000	8.511415   
581.000000	8.304175   
581.500000	8.102403   
582.000000	7.908711   
582.500000	7.716347   
583.000000	7.529258   
583.500000	7.343110   
584.000000	7.159055   
584.500000	6.981311   
585.000000	6.818521   
585.500000	6.664969   
586.000000	6.523174   
586.500000	6.393072   
587.000000	6.263309   
587.500000	6.130350   
588.000000	5.994781   
588.500000	5.861266   
589.000000	5.730587   
589.500000	5.603781   
590.000000	5.481866   
590.500000	5.364171   
591.000000	5.243564   
591.500000	5.125129   
592.000000	5.011080   
592.500000	4.900401   
593.000000	4.799641   
593.500000	4.713864   
594.000000	4.632817   
594.500000	4.550744   
595.000000	4.465750   
595.500000	4.370502   
596.000000	4.269337   
596.500000	4.170032   

