PE FL                   SPECTRUM    ASCII       PEDS        1.60        
  -1
DLFA74~1.TXT
18/01/17
12:12:39.00
18/01/17
12:12:39.00


598.500000
1









LS55
350.00
3.00
2.50
SCAN
1
20
100
100
0
60
0
1
0
1
7
ON
600 350 
1 0 0
#HDR
-1
-1
#GR
NM

0.00002384185791015625
0.0
400.000000
0.500000
398
8
652.669000
6.240000
#DATA
400.000000	172.616000 
400.500000	182.046000 
401.000000	189.011000 
401.500000	197.739000 
402.000000	204.584000 
402.500000	215.542000 
403.000000	220.527000 
403.500000	234.919000 
404.000000	243.210000 
404.500000	253.415000 
405.000000	260.911000 
405.500000	269.482000 
406.000000	277.913000 
406.500000	291.393000 
407.000000	298.391000 
407.500000	307.550000 
408.000000	322.335000 
408.500000	330.555000 
409.000000	340.656000 
409.500000	348.757000 
410.000000	358.689000 
410.500000	370.946000 
411.000000	383.018000 
411.500000	392.632000 
412.000000	403.367000 
412.500000	414.380000 
413.000000	424.533000 
413.500000	439.337000 
414.000000	447.354000 
414.500000	457.525000 
415.000000	468.534000 
415.500000	479.290000 
416.000000	489.121000 
416.500000	499.479000 
417.000000	508.706000 
417.500000	515.025000 
418.000000	522.922000 
418.500000	529.293000 
419.000000	541.809000 
419.500000	549.990000 
420.000000	554.503000 
420.500000	559.653000 
421.000000	565.510000 
421.500000	572.931000 
422.000000	579.728000 
422.500000	588.420000 
423.000000	589.422000 
423.500000	596.804000 
424.000000	601.447000 
424.500000	599.977000 
425.000000	606.048000 
425.500000	614.388000 
426.000000	617.217000 
426.500000	617.234000 
427.000000	620.609000 
427.500000	622.497000 
428.000000	625.116000 
428.500000	627.489000 
429.000000	629.293000 
429.500000	632.304000 
430.000000	638.299000 
430.500000	640.760000 
431.000000	642.064000 
431.500000	641.573000 
432.000000	645.030000 
432.500000	643.676000 
433.000000	643.230000 
433.500000	641.898000 
434.000000	643.468000 
434.500000	640.964000 
435.000000	647.958999 
435.500000	646.550000 
436.000000	648.386999 
436.500000	650.114000 
437.000000	652.669000 
437.500000	649.236000 
438.000000	643.745000 
438.500000	643.217000 
439.000000	635.448000 
439.500000	642.698000 
440.000000	639.972000 
440.500000	639.712000 
441.000000	629.760000 
441.500000	631.683000 
442.000000	629.452000 
442.500000	627.176000 
443.000000	628.059999 
443.500000	624.182000 
444.000000	615.208000 
444.500000	615.260000 
445.000000	610.120000 
445.500000	605.913000 
446.000000	598.739000 
446.500000	597.193000 
447.000000	591.861000 
447.500000	586.241000 
448.000000	583.673000 
448.500000	576.218000 
449.000000	573.687000 
449.500000	569.094000 
450.000000	565.550000 
450.500000	560.080000 
451.000000	558.388000 
451.500000	546.874000 
452.000000	545.331000 
452.500000	542.617000 
453.000000	532.022000 
453.500000	527.925000 
454.000000	527.128000 
454.500000	516.504000 
455.000000	516.773000 
455.500000	509.822000 
456.000000	501.987000 
456.500000	495.591000 
457.000000	494.019000 
457.500000	489.342000 
458.000000	484.015000 
458.500000	478.804000 
459.000000	476.132000 
459.500000	464.488000 
460.000000	461.161000 
460.500000	455.839000 
461.000000	447.204000 
461.500000	444.144000 
462.000000	443.585000 
462.500000	438.307000 
463.000000	433.877000 
463.500000	425.235000 
464.000000	420.318000 
464.500000	417.222000 
465.000000	417.592000 
465.500000	408.148000 
466.000000	405.807000 
466.500000	403.091000 
467.000000	395.610000 
467.500000	396.299000 
468.000000	390.324000 
468.500000	384.542000 
469.000000	379.427000 
469.500000	381.252000 
470.000000	374.188000 
470.500000	371.341000 
471.000000	366.566000 
471.500000	363.265000 
472.000000	357.281000 
472.500000	357.703000 
473.000000	356.269000 
473.500000	352.794000 
474.000000	348.080000 
474.500000	342.869000 
475.000000	338.220000 
475.500000	337.565000 
476.000000	334.938000 
476.500000	331.536000 
477.000000	330.094000 
477.500000	323.895000 
478.000000	323.155000 
478.500000	321.159000 
479.000000	314.084000 
479.500000	311.833000 
480.000000	310.986000 
480.500000	311.267000 
481.000000	306.214000 
481.500000	303.438000 
482.000000	301.229000 
482.500000	299.364000 
483.000000	293.111000 
483.500000	287.806000 
484.000000	288.032000 
484.500000	287.333000 
485.000000	284.255000 
485.500000	282.959000 
486.000000	279.465000 
486.500000	277.536000 
487.000000	274.827000 
487.500000	272.709000 
488.000000	268.807000 
488.500000	264.694000 
489.000000	260.774000 
489.500000	257.375000 
490.000000	256.896000 
490.500000	252.924000 
491.000000	253.944000 
491.500000	251.570000 
492.000000	246.605000 
492.500000	242.477000 
493.000000	239.245000 
493.500000	239.199000 
494.000000	241.664000 
494.500000	233.438000 
495.000000	231.421000 
495.500000	231.293000 
496.000000	228.318000 
496.500000	227.032000 
497.000000	222.503000 
497.500000	219.549000 
498.000000	220.800000 
498.500000	215.241000 
499.000000	212.184000 
499.500000	211.672000 
500.000000	207.454000 
500.500000	205.846000 
501.000000	202.936000 
501.500000	201.619000 
502.000000	199.970000 
502.500000	198.100000 
503.000000	195.302000 
503.500000	192.263000 
504.000000	190.010000 
504.500000	188.564000 
505.000000	188.308000 
505.500000	184.852000 
506.000000	183.280000 
506.500000	181.683000 
507.000000	176.957000 
507.500000	175.641000 
508.000000	173.743000 
508.500000	171.664000 
509.000000	171.313000 
509.500000	168.268000 
510.000000	167.847000 
510.500000	164.576000 
511.000000	158.163000 
511.500000	157.969000 
512.000000	158.015000 
512.500000	157.059000 
513.000000	151.028000 
513.500000	149.223000 
514.000000	147.791000 
514.500000	145.899000 
515.000000	143.848000 
515.500000	139.253000 
516.000000	136.757000 
516.500000	135.228000 
517.000000	133.014000 
517.500000	129.946000 
518.000000	128.863000 
518.500000	126.464000 
519.000000	125.967000 
519.500000	123.605000 
520.000000	120.853000 
520.500000	117.111000 
521.000000	115.529000 
521.500000	113.023000 
522.000000	110.542000 
522.500000	107.712000 
523.000000	105.918000 
523.500000	102.434000 
524.000000	102.593000 
524.500000	100.283000 
525.000000	97.390000  
525.500000	94.089000  
526.000000	93.193000  
526.500000	89.953999  
527.000000	86.430000  
527.500000	86.949000  
528.000000	82.551000  
528.500000	81.166000  
529.000000	79.227999  
529.500000	78.072000  
530.000000	74.411000  
530.500000	72.391000  
531.000000	72.227999  
531.500000	70.355000  
532.000000	69.842000  
532.500000	66.483000  
533.000000	64.718999  
533.500000	64.262000  
534.000000	63.617000  
534.500000	60.597000  
535.000000	59.264000  
535.500000	58.866000  
536.000000	57.115000  
536.500000	55.561000  
537.000000	54.163000  
537.500000	52.110000  
538.000000	50.633000  
538.500000	50.683000  
539.000000	48.921000  
539.500000	47.629000  
540.000000	47.622000  
540.500000	45.904000  
541.000000	45.287000  
541.500000	44.884000  
542.000000	42.564000  
542.500000	40.624000  
543.000000	40.676000  
543.500000	37.999000  
544.000000	39.437000  
544.500000	39.233000  
545.000000	37.460000  
545.500000	37.705000  
546.000000	35.358000  
546.500000	35.110000  
547.000000	34.158000  
547.500000	33.854000  
548.000000	32.922000  
548.500000	32.076000  
549.000000	30.649000  
549.500000	31.356000  
550.000000	30.827000  
550.500000	29.937000  
551.000000	29.470000  
551.500000	28.329000  
552.000000	27.676000  
552.500000	27.102000  
553.000000	26.763000  
553.500000	26.940000  
554.000000	25.438000  
554.500000	25.931000  
555.000000	25.191000  
555.500000	24.057000  
556.000000	23.637000  
556.500000	24.190000  
557.000000	23.249000  
557.500000	22.903000  
558.000000	22.537000  
558.500000	21.515000  
559.000000	21.898000  
559.500000	22.031000  
560.000000	20.269000  
560.500000	20.419000  
561.000000	19.864000  
561.500000	19.974000  
562.000000	20.271000  
562.500000	19.535000  
563.000000	19.329000  
563.500000	18.712000  
564.000000	17.941000  
564.500000	16.912000  
565.000000	17.036000  
565.500000	16.783000  
566.000000	16.709000  
566.500000	16.239000  
567.000000	16.400000  
567.500000	16.291000  
568.000000	15.850000  
568.500000	15.308000  
569.000000	14.899000  
569.500000	14.785000  
570.000000	13.965000  
570.500000	14.053000  
571.000000	12.931000  
571.500000	13.341000  
572.000000	13.536000  
572.500000	13.603000  
573.000000	12.829000  
573.500000	12.788000  
574.000000	12.521000  
574.500000	12.888000  
575.000000	13.041000  
575.500000	11.476000  
576.000000	11.499000  
576.500000	11.429000  
577.000000	11.987000  
577.500000	10.957000  
578.000000	10.617000  
578.500000	10.529000  
579.000000	10.131000  
579.500000	10.454000  
580.000000	10.453000  
580.500000	9.791000   
581.000000	9.340000   
581.500000	9.145000   
582.000000	8.981000   
582.500000	8.733000   
583.000000	9.083000   
583.500000	8.632000   
584.000000	8.935000   
584.500000	9.131000   
585.000000	8.430999   
585.500000	8.340000   
586.000000	8.433000   
586.500000	8.521000   
587.000000	8.348000   
587.500000	7.989000   
588.000000	7.935000   
588.500000	7.525000   
589.000000	7.595000   
589.500000	7.776000   
590.000000	7.272000   
590.500000	7.140000   
591.000000	7.127000   
591.500000	7.665000   
592.000000	7.094000   
592.500000	6.943000   
593.000000	6.799000   
593.500000	6.784000   
594.000000	7.056000   
594.500000	6.695000   
595.000000	6.772000   
595.500000	6.565000   
596.000000	6.549000   
596.500000	6.681000   
597.000000	6.929000   
597.500000	6.386000   
598.000000	6.240000   
598.500000	6.545000   

