PE FL                   SPECTRUM    ASCII       PEDS        1.60        
  -1
DMPC_2~4.TXT
18/03/06
14:18:48.00
18/03/06
14:18:48.00


596.500000
1









LS55
350.00
11.00
3.20
SCAN
1
20
100
100
0
60
0
1
0
1
7
ON
446 350 
1 0 0
#HDR
-1
-1
#GR
NM

0.00002384185791015625
0.0
400.000000
0.500000
394
8
667.289478
4.228188
#DATA
400.000000	85.184000  
400.500000	91.557005  
401.000000	97.929246  
401.500000	104.355352 
402.000000	110.907033 
402.500000	117.640323 
403.000000	124.636465 
403.500000	131.946888 
404.000000	139.535679 
404.500000	147.458781 
405.000000	155.705665 
405.500000	164.224846 
406.000000	172.956029 
406.500000	181.897404 
407.000000	190.963034 
407.500000	200.210096 
408.000000	209.570715 
408.500000	219.059168 
409.000000	228.694142 
409.500000	238.662732 
410.000000	248.983485 
410.500000	259.706707 
411.000000	270.689096 
411.500000	281.908104 
412.000000	293.218323 
412.500000	304.774693 
413.000000	316.645966 
413.500000	328.843906 
414.000000	341.173761 
414.500000	353.565364 
415.000000	365.841509 
415.500000	377.975316 
416.000000	390.008118 
416.500000	401.946266 
417.000000	413.724054 
417.500000	425.450977 
418.000000	437.205768 
418.500000	448.956476 
419.000000	460.753439 
419.500000	472.457422 
420.000000	483.925729 
420.500000	495.148383 
421.000000	506.141083 
421.500000	516.838942 
422.000000	527.212290 
422.500000	537.052962 
423.000000	546.297829 
423.500000	555.041811 
424.000000	563.458880 
424.500000	571.707651 
425.000000	579.833563 
425.500000	587.671324 
426.000000	595.013916 
426.500000	601.842687 
427.000000	608.247426 
427.500000	614.360864 
428.000000	620.280987 
428.500000	625.998218 
429.000000	631.313015 
429.500000	636.205309 
430.000000	640.735613 
430.500000	644.913259 
431.000000	648.670344 
431.500000	652.082520 
432.000000	654.990542 
432.500000	657.437071 
433.000000	659.524158 
433.500000	661.439514 
434.000000	663.187220 
434.500000	664.754058 
435.000000	665.975931 
435.500000	666.850867 
436.000000	667.231559 
436.500000	667.289478 
437.000000	667.106450 
437.500000	666.728108 
438.000000	666.056751 
438.500000	665.170235 
439.000000	663.928668 
439.500000	662.346684 
440.000000	660.477569 
440.500000	658.366637 
441.000000	655.963543 
441.500000	653.416534 
442.000000	650.660032 
442.500000	647.687573 
443.000000	644.533944 
443.500000	641.269684 
444.000000	637.759329 
444.500000	634.094747 
445.000000	630.197900 
445.500000	626.005283 
446.000000	621.561560 
446.500000	617.053704 
447.000000	612.432030 
447.500000	607.899578 
448.000000	603.385630 
448.500000	598.881806 
449.000000	594.229410 
449.500000	589.572743 
450.000000	584.922793 
450.500000	580.314153 
451.000000	575.563086 
451.500000	570.720292 
452.000000	565.629758 
452.500000	560.460414 
453.000000	555.389510 
453.500000	550.451379 
454.000000	545.518701 
454.500000	540.697158 
455.000000	535.799976 
455.500000	530.767942 
456.000000	525.658029 
456.500000	520.472507 
457.000000	515.194585 
457.500000	509.976542 
458.000000	504.821571 
458.500000	499.726987 
459.000000	494.638094 
459.500000	489.480026 
460.000000	484.062283 
460.500000	478.569528 
461.000000	473.176496 
461.500000	467.947622 
462.000000	462.923841 
462.500000	458.067015 
463.000000	453.120786 
463.500000	448.193648 
464.000000	443.383220 
464.500000	438.548189 
465.000000	433.744273 
465.500000	429.064244 
466.000000	424.320728 
466.500000	419.496188 
467.000000	414.792463 
467.500000	410.087941 
468.000000	405.388856 
468.500000	400.821563 
469.000000	396.408433 
469.500000	392.102336 
470.000000	388.040687 
470.500000	384.094524 
471.000000	380.139292 
471.500000	376.167640 
472.000000	372.230753 
472.500000	368.358216 
473.000000	364.649792 
473.500000	361.035486 
474.000000	357.439728 
474.500000	353.823252 
475.000000	350.143345 
475.500000	346.462743 
476.000000	342.879682 
476.500000	339.398719 
477.000000	336.002595 
477.500000	332.668094 
478.000000	329.365503 
478.500000	326.117094 
479.000000	322.910528 
479.500000	319.746110 
480.000000	316.654107 
480.500000	313.562319 
481.000000	310.475779 
481.500000	307.445263 
482.000000	304.494168 
482.500000	301.562486 
483.000000	298.668013 
483.500000	295.781695 
484.000000	292.852359 
484.500000	289.904965 
485.000000	287.003899 
485.500000	284.132270 
486.000000	281.329919 
486.500000	278.574980 
487.000000	275.822100 
487.500000	273.017670 
488.000000	270.194811 
488.500000	267.336369 
489.000000	264.537047 
489.500000	261.798404 
490.000000	259.058649 
490.500000	256.308216 
491.000000	253.552075 
491.500000	250.777555 
492.000000	248.127001 
492.500000	245.658168 
493.000000	243.339415 
493.500000	241.111736 
494.000000	238.918841 
494.500000	236.677623 
495.000000	234.373145 
495.500000	232.058292 
496.000000	229.753668 
496.500000	227.469769 
497.000000	225.203523 
497.500000	222.930723 
498.000000	220.641640 
498.500000	218.328789 
499.000000	216.037132 
499.500000	213.721688 
500.000000	211.444156 
500.500000	209.225405 
501.000000	207.049686 
501.500000	204.915458 
502.000000	202.829390 
502.500000	200.751178 
503.000000	198.676938 
503.500000	196.607142 
504.000000	194.503213 
504.500000	192.377535 
505.000000	190.194357 
505.500000	187.945351 
506.000000	185.659080 
506.500000	183.423000 
507.000000	181.236722 
507.500000	179.171458 
508.000000	177.131312 
508.500000	175.079645 
509.000000	172.962645 
509.500000	170.786973 
510.000000	168.532789 
510.500000	166.293069 
511.000000	164.044237 
511.500000	161.802294 
512.000000	159.524728 
512.500000	157.165111 
513.000000	154.682832 
513.500000	152.141722 
514.000000	149.570913 
514.500000	147.003096 
515.000000	144.481781 
515.500000	141.965868 
516.000000	139.474768 
516.500000	136.988801 
517.000000	134.514695 
517.500000	132.022001 
518.000000	129.523068 
518.500000	126.960375 
519.000000	124.372841 
519.500000	121.785273 
520.000000	119.232931 
520.500000	116.752682 
521.000000	114.349456 
521.500000	111.975553 
522.000000	109.604562 
522.500000	107.248549 
523.000000	104.872967 
523.500000	102.536386 
524.000000	100.229997 
524.500000	97.968624  
525.000000	95.771948  
525.500000	93.628878  
526.000000	91.509670  
526.500000	89.459146  
527.000000	87.411516  
527.500000	85.332912  
528.000000	83.250338  
528.500000	81.146609  
529.000000	79.041203  
529.500000	77.013739  
530.000000	75.066497  
530.500000	73.212114  
531.000000	71.450758  
531.500000	69.738687  
532.000000	68.073792  
532.500000	66.458549  
533.000000	64.863071  
533.500000	63.299591  
534.000000	61.764913  
534.500000	60.249953  
535.000000	58.759241  
535.500000	57.317670  
536.000000	55.909019  
536.500000	54.544168  
537.000000	53.247864  
537.500000	51.996626  
538.000000	50.757965  
538.500000	49.559288  
539.000000	48.409292  
539.500000	47.292433  
540.000000	46.233397  
540.500000	45.235086  
541.000000	44.256430  
541.500000	43.278835  
542.000000	42.313595  
542.500000	41.340135  
543.000000	40.381910  
543.500000	39.461415  
544.000000	38.576308  
544.500000	37.709037  
545.000000	36.881782  
545.500000	36.070503  
546.000000	35.277012  
546.500000	34.511218  
547.000000	33.788582  
547.500000	33.100451  
548.000000	32.464828  
548.500000	31.841867  
549.000000	31.211245  
549.500000	30.567071  
550.000000	29.923806  
550.500000	29.275271  
551.000000	28.650612  
551.500000	28.044609  
552.000000	27.456896  
552.500000	26.875009  
553.000000	26.314072  
553.500000	25.761673  
554.000000	25.233962  
554.500000	24.726039  
555.000000	24.235016  
555.500000	23.753447  
556.000000	23.280810  
556.500000	22.808489  
557.000000	22.337358  
557.500000	21.873278  
558.000000	21.414635  
558.500000	20.962405  
559.000000	20.511775  
559.500000	20.066383  
560.000000	19.617711  
560.500000	19.177825  
561.000000	18.760306  
561.500000	18.359054  
562.000000	17.962709  
562.500000	17.571527  
563.000000	17.188013  
563.500000	16.816504  
564.000000	16.469384  
564.500000	16.144039  
565.000000	15.826532  
565.500000	15.500157  
566.000000	15.171072  
566.500000	14.838295  
567.000000	14.514118  
567.500000	14.196928  
568.000000	13.890228  
568.500000	13.579539  
569.000000	13.271788  
569.500000	12.972066  
570.000000	12.691761  
570.500000	12.423601  
571.000000	12.167994  
571.500000	11.916380  
572.000000	11.664642  
572.500000	11.417800  
573.000000	11.183509  
573.500000	10.944326  
574.000000	10.698792  
574.500000	10.448386  
575.000000	10.189322  
575.500000	9.940775   
576.000000	9.718145   
576.500000	9.512662   
577.000000	9.327617   
577.500000	9.147966   
578.000000	8.957492   
578.500000	8.760157   
579.000000	8.570974   
579.500000	8.382623   
580.000000	8.206648   
580.500000	8.037854   
581.000000	7.866740   
581.500000	7.691541   
582.000000	7.517352   
582.500000	7.335069   
583.000000	7.152682   
583.500000	6.977562   
584.000000	6.807591   
584.500000	6.645538   
585.000000	6.500818   
585.500000	6.373931   
586.000000	6.255297   
586.500000	6.141471   
587.000000	6.030598   
587.500000	5.915794   
588.000000	5.796881   
588.500000	5.678472   
589.000000	5.559880   
589.500000	5.441294   
590.000000	5.334866   
590.500000	5.231543   
591.000000	5.131626   
591.500000	5.037495   
592.000000	4.949238   
592.500000	4.861330   
593.000000	4.776086   
593.500000	4.690135   
594.000000	4.605506   
594.500000	4.520993   
595.000000	4.439797   
595.500000	4.364320   
596.000000	4.296468   
596.500000	4.228188   

