PE FL                   SPECTRUM    ASCII       PEDS        1.60        
  -1
DM0AA2~1.TXT
18/03/13
15:18:50.00
18/03/13
15:18:50.00


594.500000
1









LS55
350.00
11.00
9.00
SCAN
1
20
100
100
0
60
0
1
0
1
7
ON
600 350 
1 0 0
#HDR
-1
-1
#GR
NM

0.00002384185791015625
0.0
400.000000
0.500000
390
8
426.554342
5.338127
#DATA
400.000000	55.167000  
400.500000	57.841660  
401.000000	60.462738  
401.500000	63.042465  
402.000000	65.612978  
402.500000	68.199561  
403.000000	70.825946  
403.500000	73.539762  
404.000000	76.401277  
404.500000	79.456986  
405.000000	82.705562  
405.500000	86.108941  
406.000000	89.663133  
406.500000	93.347381  
407.000000	97.156438  
407.500000	101.109850 
408.000000	105.217351 
408.500000	109.490014 
409.000000	113.939894 
409.500000	118.574680 
410.000000	123.413591 
410.500000	128.470086 
411.000000	133.718170 
411.500000	139.148698 
412.000000	144.791334 
412.500000	150.630109 
413.000000	156.649785 
413.500000	162.840234 
414.000000	169.161155 
414.500000	175.580724 
415.000000	182.075558 
415.500000	188.596282 
416.000000	195.121209 
416.500000	201.655565 
417.000000	208.184535 
417.500000	214.763126 
418.000000	221.409262 
418.500000	228.151913 
419.000000	234.978302 
419.500000	241.878858 
420.000000	248.846928 
420.500000	255.864502 
421.000000	262.841781 
421.500000	269.679408 
422.000000	276.395083 
422.500000	282.918122 
423.000000	289.242381 
423.500000	295.329736 
424.000000	301.139004 
424.500000	306.731309 
425.000000	312.182597 
425.500000	317.516053 
426.000000	322.751698 
426.500000	327.986604 
427.000000	333.199607 
427.500000	338.427803 
428.000000	343.659107 
428.500000	348.806286 
429.000000	353.864021 
429.500000	358.784601 
430.000000	363.539616 
430.500000	368.123832 
431.000000	372.569214 
431.500000	376.822935 
432.000000	380.891738 
432.500000	384.786735 
433.000000	388.443600 
433.500000	391.871995 
434.000000	395.023565 
434.500000	397.912423 
435.000000	400.571007 
435.500000	403.088565 
436.000000	405.455433 
436.500000	407.712530 
437.000000	409.880139 
437.500000	411.956720 
438.000000	413.963582 
438.500000	415.884516 
439.000000	417.703795 
439.500000	419.377215 
440.000000	420.924605 
440.500000	422.304325 
441.000000	423.502497 
441.500000	424.506183 
442.000000	425.299351 
442.500000	425.888403 
443.000000	426.270410 
443.500000	426.485852 
444.000000	426.554342 
444.500000	426.490493 
445.000000	426.305783 
445.500000	426.010981 
446.000000	425.602931 
446.500000	425.081877 
447.000000	424.476914 
447.500000	423.756092 
448.000000	422.926210 
448.500000	422.013141 
449.000000	421.025999 
449.500000	419.998599 
450.000000	418.894473 
450.500000	417.707516 
451.000000	416.422431 
451.500000	415.081653 
452.000000	413.645919 
452.500000	412.112152 
453.000000	410.483309 
453.500000	408.793744 
454.000000	407.116992 
454.500000	405.446796 
455.000000	403.785697 
455.500000	402.127948 
456.000000	400.477756 
456.500000	398.782612 
457.000000	397.050956 
457.500000	395.222917 
458.000000	393.289787 
458.500000	391.293865 
459.000000	389.257835 
459.500000	387.189921 
460.000000	385.141801 
460.500000	383.124172 
461.000000	381.113699 
461.500000	379.150906 
462.000000	377.247761 
462.500000	375.376403 
463.000000	373.532394 
463.500000	371.721985 
464.000000	369.915941 
464.500000	368.155419 
465.000000	366.416329 
465.500000	364.670836 
466.000000	362.940373 
466.500000	361.256392 
467.000000	359.590233 
467.500000	357.945232 
468.000000	356.316224 
468.500000	354.689016 
469.000000	353.096114 
469.500000	351.511335 
470.000000	349.934511 
470.500000	348.370169 
471.000000	346.843847 
471.500000	345.324063 
472.000000	343.830163 
472.500000	342.331989 
473.000000	340.822861 
473.500000	339.328259 
474.000000	337.827030 
474.500000	336.354007 
475.000000	334.939055 
475.500000	333.587432 
476.000000	332.286995 
476.500000	331.012271 
477.000000	329.735346 
477.500000	328.435237 
478.000000	327.095906 
478.500000	325.677444 
479.000000	324.205817 
479.500000	322.688754 
480.000000	321.164871 
480.500000	319.663485 
481.000000	318.118319 
481.500000	316.528375 
482.000000	314.895810 
482.500000	313.206790 
483.000000	311.449271 
483.500000	309.641822 
484.000000	307.758341 
484.500000	305.845006 
485.000000	303.977602 
485.500000	302.098502 
486.000000	300.187799 
486.500000	298.273924 
487.000000	296.346863 
487.500000	294.399950 
488.000000	292.429147 
488.500000	290.370952 
489.000000	288.258926 
489.500000	286.141444 
490.000000	284.000197 
490.500000	281.838600 
491.000000	279.675588 
491.500000	277.515571 
492.000000	275.355864 
492.500000	273.201615 
493.000000	271.017639 
493.500000	268.817920 
494.000000	266.575004 
494.500000	264.279999 
495.000000	261.965553 
495.500000	259.647438 
496.000000	257.343855 
496.500000	255.049545 
497.000000	252.762312 
497.500000	250.481147 
498.000000	248.222385 
498.500000	245.930099 
499.000000	243.565099 
499.500000	241.176395 
500.000000	238.793063 
500.500000	236.444765 
501.000000	234.133352 
501.500000	231.842807 
502.000000	229.593736 
502.500000	227.397580 
503.000000	225.208093 
503.500000	222.986503 
504.000000	220.716256 
504.500000	218.387416 
505.000000	216.024687 
505.500000	213.651029 
506.000000	211.254971 
506.500000	208.897978 
507.000000	206.595950 
507.500000	204.326108 
508.000000	202.091135 
508.500000	199.870533 
509.000000	197.624156 
509.500000	195.314449 
510.000000	192.942374 
510.500000	190.476721 
511.000000	187.938229 
511.500000	185.346323 
512.000000	182.698606 
512.500000	180.036536 
513.000000	177.374373 
513.500000	174.715222 
514.000000	172.032050 
514.500000	169.329469 
515.000000	166.608231 
515.500000	163.869058 
516.000000	161.119159 
516.500000	158.364694 
517.000000	155.634703 
517.500000	152.933172 
518.000000	150.280833 
518.500000	147.651083 
519.000000	145.044113 
519.500000	142.476746 
520.000000	139.917493 
520.500000	137.332211 
521.000000	134.721504 
521.500000	132.087909 
522.000000	129.415300 
522.500000	126.711619 
523.000000	123.992789 
523.500000	121.262477 
524.000000	118.568578 
524.500000	115.920093 
525.000000	113.328144 
525.500000	110.795565 
526.000000	108.317893 
526.500000	105.879730 
527.000000	103.449565 
527.500000	101.027923 
528.000000	98.605465  
528.500000	96.199220  
529.000000	93.801746  
529.500000	91.447424  
530.000000	89.151676  
530.500000	86.924228  
531.000000	84.775882  
531.500000	82.689756  
532.000000	80.679012  
532.500000	78.730105  
533.000000	76.836382  
533.500000	74.966594  
534.000000	73.123743  
534.500000	71.304869  
535.000000	69.516049  
535.500000	67.765085  
536.000000	66.050779  
536.500000	64.388295  
537.000000	62.785405  
537.500000	61.254800  
538.000000	59.795513  
538.500000	58.400202  
539.000000	57.050895  
539.500000	55.746183  
540.000000	54.477041  
540.500000	53.232789  
541.000000	52.025264  
541.500000	50.843726  
542.000000	49.686323  
542.500000	48.561011  
543.000000	47.461160  
543.500000	46.375852  
544.000000	45.311565  
544.500000	44.260497  
545.000000	43.222327  
545.500000	42.211314  
546.000000	41.233946  
546.500000	40.292023  
547.000000	39.392569  
547.500000	38.530523  
548.000000	37.699081  
548.500000	36.898752  
549.000000	36.117951  
549.500000	35.346403  
550.000000	34.579734  
550.500000	33.820985  
551.000000	33.071584  
551.500000	32.332244  
552.000000	31.606576  
552.500000	30.898755  
553.000000	30.214047  
553.500000	29.559707  
554.000000	28.929905  
554.500000	28.317279  
555.000000	27.722719  
555.500000	27.144312  
556.000000	26.576845  
556.500000	26.019413  
557.000000	25.466597  
557.500000	24.917142  
558.000000	24.377638  
558.500000	23.846069  
559.000000	23.321858  
559.500000	22.808250  
560.000000	22.303445  
560.500000	21.813744  
561.000000	21.339425  
561.500000	20.875080  
562.000000	20.427401  
562.500000	19.994548  
563.000000	19.579495  
563.500000	19.182413  
564.000000	18.797954  
564.500000	18.417799  
565.000000	18.048310  
565.500000	17.684053  
566.000000	17.317613  
566.500000	16.955572  
567.000000	16.597323  
567.500000	16.245059  
568.000000	15.902513  
568.500000	15.569608  
569.000000	15.245556  
569.500000	14.933995  
570.000000	14.632465  
570.500000	14.334249  
571.000000	14.043665  
571.500000	13.764947  
572.000000	13.492312  
572.500000	13.222408  
573.000000	12.951074  
573.500000	12.676665  
574.000000	12.402091  
574.500000	12.127436  
575.000000	11.847165  
575.500000	11.562977  
576.000000	11.291461  
576.500000	11.029668  
577.000000	10.778420  
577.500000	10.538594  
578.000000	10.307693  
578.500000	10.086701  
579.000000	9.878152   
579.500000	9.674210   
580.000000	9.472887   
580.500000	9.279183   
581.000000	9.087059   
581.500000	8.895479   
582.000000	8.707196   
582.500000	8.515380   
583.000000	8.322319   
583.500000	8.136627   
584.000000	7.956500   
584.500000	7.786878   
585.000000	7.628243   
585.500000	7.479343   
586.000000	7.337639   
586.500000	7.206663   
587.000000	7.077345   
587.500000	6.945551   
588.000000	6.815620   
588.500000	6.682809   
589.000000	6.549534   
589.500000	6.419375   
590.000000	6.293948   
590.500000	6.172050   
591.000000	6.056196   
591.500000	5.943165   
592.000000	5.831431   
592.500000	5.726713   
593.000000	5.626039   
593.500000	5.524842   
594.000000	5.428361   
594.500000	5.338127   

