PE FL                   SPECTRUM    ASCII       PEDS        1.60        
  -1
DMF9A2~1.TXT
18/03/13
14:58:14.00
18/03/13
14:58:14.00


594.500000
1









LS55
350.00
11.00
9.00
SCAN
1
20
100
100
0
60
0
1
0
1
7
ON
600 350 
1 0 0
#HDR
-1
-1
#GR
NM

0.00002384185791015625
0.0
400.000000
0.500000
390
8
555.456389
4.364708
#DATA
400.000000	53.266000  
400.500000	55.757456  
401.000000	58.220608  
401.500000	60.696091  
402.000000	63.210099  
402.500000	65.775164  
403.000000	68.442162  
403.500000	71.244823  
404.000000	74.224092  
404.500000	77.420738  
405.000000	80.831889  
405.500000	84.429096  
406.000000	88.235037  
406.500000	92.225374  
407.000000	96.402052  
407.500000	100.775879 
408.000000	105.369248 
408.500000	110.205671 
409.000000	115.287969 
409.500000	120.614828 
410.000000	126.187010 
410.500000	132.066172 
411.000000	138.222916 
411.500000	144.672081 
412.000000	151.404908 
412.500000	158.445050 
413.000000	165.803519 
413.500000	173.463832 
414.000000	181.369010 
414.500000	189.475230 
415.000000	197.786103 
415.500000	206.236529 
416.000000	214.821708 
416.500000	223.531895 
417.000000	232.368829 
417.500000	241.386994 
418.000000	250.586309 
418.500000	259.961144 
419.000000	269.485684 
419.500000	279.164927 
420.000000	288.938145 
420.500000	298.769954 
421.000000	308.589901 
421.500000	318.336483 
422.000000	328.022931 
422.500000	337.599432 
423.000000	347.036503 
423.500000	356.302347 
424.000000	365.397627 
424.500000	374.305299 
425.000000	383.071829 
425.500000	391.667140 
426.000000	400.108878 
426.500000	408.409055 
427.000000	416.576843 
427.500000	424.661580 
428.000000	432.621077 
428.500000	440.439974 
429.000000	448.092255 
429.500000	455.591167 
430.000000	462.877118 
430.500000	469.954995 
431.000000	476.744666 
431.500000	483.241784 
432.000000	489.508231 
432.500000	495.467209 
433.000000	501.148037 
433.500000	506.541561 
434.000000	511.657041 
434.500000	516.540578 
435.000000	521.226880 
435.500000	525.673238 
436.000000	529.826944 
436.500000	533.734626 
437.000000	537.285636 
437.500000	540.507234 
438.000000	543.390176 
438.500000	545.960663 
439.000000	548.212501 
439.500000	550.132433 
440.000000	551.772122 
440.500000	553.107136 
441.000000	554.183932 
441.500000	554.914560 
442.000000	555.351218 
442.500000	555.456389 
443.000000	555.286842 
443.500000	554.820755 
444.000000	554.095329 
444.500000	553.236821 
445.000000	552.303158 
445.500000	551.371952 
446.000000	550.443683 
446.500000	549.553001 
447.000000	548.706434 
447.500000	547.911196 
448.000000	547.040385 
448.500000	545.977046 
449.000000	544.653283 
449.500000	542.983368 
450.000000	540.929880 
450.500000	538.398710 
451.000000	535.357565 
451.500000	531.883275 
452.000000	527.985099 
452.500000	523.698125 
453.000000	519.080911 
453.500000	514.278210 
454.000000	509.376902 
454.500000	504.497941 
455.000000	499.687047 
455.500000	494.928352 
456.000000	490.280910 
456.500000	485.737757 
457.000000	481.264038 
457.500000	476.808847 
458.000000	472.413093 
458.500000	468.061672 
459.000000	463.769544 
459.500000	459.502935 
460.000000	455.228384 
460.500000	450.945849 
461.000000	446.678287 
461.500000	442.416365 
462.000000	438.121911 
462.500000	433.852895 
463.000000	429.660981 
463.500000	425.567805 
464.000000	421.562210 
464.500000	417.636031 
465.000000	413.737545 
465.500000	409.892743 
466.000000	406.071069 
466.500000	402.222527 
467.000000	398.344307 
467.500000	394.493828 
468.000000	390.672663 
468.500000	386.900323 
469.000000	383.198003 
469.500000	379.554974 
470.000000	376.003201 
470.500000	372.541840 
471.000000	369.149314 
471.500000	365.790812 
472.000000	362.481697 
472.500000	359.162711 
473.000000	355.845602 
473.500000	352.502164 
474.000000	349.127114 
474.500000	345.757575 
475.000000	342.371816 
475.500000	339.023962 
476.000000	335.719508 
476.500000	332.469692 
477.000000	329.233074 
477.500000	326.062713 
478.000000	322.939582 
478.500000	319.866956 
479.000000	316.813703 
479.500000	313.725415 
480.000000	310.633200 
480.500000	307.545917 
481.000000	304.459123 
481.500000	301.328419 
482.000000	298.174194 
482.500000	295.011587 
483.000000	291.892540 
483.500000	288.813208 
484.000000	285.740864 
484.500000	282.698897 
485.000000	279.700580 
485.500000	276.712783 
486.000000	273.722370 
486.500000	270.701926 
487.000000	267.632336 
487.500000	264.568038 
488.000000	261.497504 
488.500000	258.402314 
489.000000	255.300091 
489.500000	252.222318 
490.000000	249.167780 
490.500000	246.142943 
491.000000	243.160550 
491.500000	240.190321 
492.000000	237.265851 
492.500000	234.406118 
493.000000	231.600141 
493.500000	228.855341 
494.000000	226.192950 
494.500000	223.603749 
495.000000	221.056781 
495.500000	218.563211 
496.000000	216.083925 
496.500000	213.635417 
497.000000	211.246049 
497.500000	208.922478 
498.000000	206.668954 
498.500000	204.485557 
499.000000	202.393413 
499.500000	200.358239 
500.000000	198.372947 
500.500000	196.382041 
501.000000	194.320540 
501.500000	192.161978 
502.000000	189.852810 
502.500000	187.369208 
503.000000	184.699884 
503.500000	181.882469 
504.000000	178.932154 
504.500000	175.910971 
505.000000	172.903669 
505.500000	169.936667 
506.000000	167.066135 
506.500000	164.326272 
507.000000	161.706490 
507.500000	159.214599 
508.000000	156.844128 
508.500000	154.529696 
509.000000	152.235764 
509.500000	149.984643 
510.000000	147.741308 
510.500000	145.515891 
511.000000	143.308563 
511.500000	141.073600 
512.000000	138.824804 
512.500000	136.570635 
513.000000	134.292193 
513.500000	131.958400 
514.000000	129.588511 
514.500000	127.174856 
515.000000	124.763790 
515.500000	122.375186 
516.000000	120.017818 
516.500000	117.714123 
517.000000	115.472864 
517.500000	113.296494 
518.000000	111.163650 
518.500000	109.046179 
519.000000	106.910803 
519.500000	104.767183 
520.000000	102.602258 
520.500000	100.443341 
521.000000	98.290769  
521.500000	96.140117  
522.000000	94.010636  
522.500000	91.922666  
523.000000	89.875617  
523.500000	87.872499  
524.000000	85.905279  
524.500000	83.956799  
525.000000	82.044906  
525.500000	80.166243  
526.000000	78.303685  
526.500000	76.445864  
527.000000	74.610224  
527.500000	72.791402  
528.000000	71.004517  
528.500000	69.233100  
529.000000	67.483294  
529.500000	65.769155  
530.000000	64.106628  
530.500000	62.491806  
531.000000	60.917325  
531.500000	59.399210  
532.000000	57.927408  
532.500000	56.512316  
533.000000	55.132267  
533.500000	53.777009  
534.000000	52.436390  
534.500000	51.108015  
535.000000	49.795731  
535.500000	48.506633  
536.000000	47.257734  
536.500000	46.039100  
537.000000	44.877010  
537.500000	43.767380  
538.000000	42.705240  
538.500000	41.674357  
539.000000	40.666941  
539.500000	39.685527  
540.000000	38.731410  
540.500000	37.812221  
541.000000	36.909735  
541.500000	36.033296  
542.000000	35.190665  
542.500000	34.379476  
543.000000	33.582634  
543.500000	32.795379  
544.000000	32.020383  
544.500000	31.259264  
545.000000	30.520240  
545.500000	29.792927  
546.000000	29.080718  
546.500000	28.403923  
547.000000	27.768772  
547.500000	27.159870  
548.000000	26.574164  
548.500000	26.017623  
549.000000	25.479870  
549.500000	24.956280  
550.000000	24.432508  
550.500000	23.898769  
551.000000	23.366188  
551.500000	22.842998  
552.000000	22.324433  
552.500000	21.817452  
553.000000	21.334827  
553.500000	20.878986  
554.000000	20.451033  
554.500000	20.040605  
555.000000	19.640533  
555.500000	19.254788  
556.000000	18.880792  
556.500000	18.506748  
557.000000	18.127926  
557.500000	17.744940  
558.000000	17.357051  
558.500000	16.969557  
559.000000	16.582621  
559.500000	16.199158  
560.000000	15.828799  
560.500000	15.473060  
561.000000	15.133882  
561.500000	14.814568  
562.000000	14.511150  
562.500000	14.219209  
563.000000	13.939537  
563.500000	13.667131  
564.000000	13.398855  
564.500000	13.135046  
565.000000	12.878082  
565.500000	12.626364  
566.000000	12.379262  
566.500000	12.134460  
567.000000	11.889707  
567.500000	11.646274  
568.000000	11.405866  
568.500000	11.168307  
569.000000	10.933622  
569.500000	10.707673  
570.000000	10.493630  
570.500000	10.287510  
571.000000	10.090048  
571.500000	9.900221   
572.000000	9.711599   
572.500000	9.526578   
573.000000	9.343313   
573.500000	9.157292   
574.000000	8.971867   
574.500000	8.790190   
575.000000	8.610116   
575.500000	8.432351   
576.000000	8.260143   
576.500000	8.087790   
577.000000	7.923077   
577.500000	7.765584   
578.000000	7.616173   
578.500000	7.473376   
579.000000	7.335430   
579.500000	7.201279   
580.000000	7.066475   
580.500000	6.932562   
581.000000	6.794581   
581.500000	6.655697   
582.000000	6.516097   
582.500000	6.380434   
583.000000	6.251878   
583.500000	6.129247   
584.000000	6.016142   
584.500000	5.908690   
585.000000	5.806190   
585.500000	5.709156   
586.000000	5.616777   
586.500000	5.525706   
587.000000	5.434799   
587.500000	5.346204   
588.000000	5.260900   
588.500000	5.179205   
589.000000	5.100372   
589.500000	5.024584   
590.000000	4.953281   
590.500000	4.884775   
591.000000	4.819046   
591.500000	4.753157   
592.000000	4.686702   
592.500000	4.618901   
593.000000	4.551199   
593.500000	4.485726   
594.000000	4.423148   
594.500000	4.364708   

