PE FL                   SPECTRUM    ASCII       PEDS        1.60        
  -1
DM0AAE~1.TXT
18/03/13
15:14:37.00
18/03/13
15:14:37.00


594.500000
1









LS55
350.00
11.00
9.00
SCAN
1
20
100
100
0
60
0
1
0
1
7
ON
600 350 
1 0 0
#HDR
-1
-1
#GR
NM

0.00002384185791015625
0.0
400.000000
0.500000
390
8
450.311947
5.270533
#DATA
400.000000	57.232000  
400.500000	59.567073  
401.000000	61.937122  
401.500000	64.349915  
402.000000	66.840415  
402.500000	69.434855  
403.000000	72.151198  
403.500000	75.006159  
404.000000	78.031150  
404.500000	81.210041  
405.000000	84.562957  
405.500000	88.089589  
406.000000	91.778522  
406.500000	95.616553  
407.000000	99.601116  
407.500000	103.738315 
408.000000	108.041112 
408.500000	112.528228 
409.000000	117.185251 
409.500000	122.023617 
410.000000	127.075314 
410.500000	132.353784 
411.000000	137.850928 
411.500000	143.565035 
412.000000	149.501158 
412.500000	155.659175 
413.000000	162.040697 
413.500000	168.581135 
414.000000	175.242757 
414.500000	182.023616 
415.000000	188.900351 
415.500000	195.847087 
416.000000	202.824865 
416.500000	209.832951 
417.000000	216.901017 
417.500000	224.064888 
418.000000	231.295101 
418.500000	238.598916 
419.000000	245.982231 
419.500000	253.444044 
420.000000	260.965306 
420.500000	268.467812 
421.000000	275.892421 
421.500000	283.206697 
422.000000	290.398259 
422.500000	297.394611 
423.000000	304.191793 
423.500000	310.794642 
424.000000	317.202692 
424.500000	323.441635 
425.000000	329.521189 
425.500000	335.456277 
426.000000	341.259398 
426.500000	346.977728 
427.000000	352.607951 
427.500000	358.144358 
428.000000	363.615084 
428.500000	368.999942 
429.000000	374.266907 
429.500000	379.391615 
430.000000	384.332404 
430.500000	389.029614 
431.000000	393.513306 
431.500000	397.777135 
432.000000	401.798645 
432.500000	405.642947 
433.000000	409.334743 
433.500000	412.882148 
434.000000	416.311267 
434.500000	419.634109 
435.000000	422.820143 
435.500000	425.871665 
436.000000	428.793402 
436.500000	431.551450 
437.000000	434.146323 
437.500000	436.573966 
438.000000	438.799886 
438.500000	440.835864 
439.000000	442.700560 
439.500000	444.359257 
440.000000	445.772609 
440.500000	446.952806 
441.000000	447.897497 
441.500000	448.661063 
442.000000	449.277099 
442.500000	449.739370 
443.000000	450.044054 
443.500000	450.235014 
444.000000	450.311947 
444.500000	450.229429 
445.000000	449.971611 
445.500000	449.490657 
446.000000	448.832032 
446.500000	448.006717 
447.000000	447.038558 
447.500000	445.945067 
448.000000	444.775187 
448.500000	443.585677 
449.000000	442.386797 
449.500000	441.141760 
450.000000	439.804205 
450.500000	438.378211 
451.000000	436.827901 
451.500000	435.171277 
452.000000	433.387359 
452.500000	431.460896 
453.000000	429.465755 
453.500000	427.449111 
454.000000	425.414209 
454.500000	423.350302 
455.000000	421.273240 
455.500000	419.151923 
456.000000	417.020522 
456.500000	414.862337 
457.000000	412.624301 
457.500000	410.340287 
458.000000	408.025004 
458.500000	405.684356 
459.000000	403.332224 
459.500000	400.951298 
460.000000	398.500396 
460.500000	396.047018 
461.000000	393.617800 
461.500000	391.218736 
462.000000	388.856554 
462.500000	386.543592 
463.000000	384.274762 
463.500000	382.074489 
464.000000	379.908799 
464.500000	377.720207 
465.000000	375.522855 
465.500000	373.312186 
466.000000	371.107164 
466.500000	368.931402 
467.000000	366.825062 
467.500000	364.768063 
468.000000	362.817200 
468.500000	360.944732 
469.000000	359.098612 
469.500000	357.257137 
470.000000	355.388652 
470.500000	353.497723 
471.000000	351.593964 
471.500000	349.713348 
472.000000	347.858720 
472.500000	346.054338 
473.000000	344.319211 
473.500000	342.626507 
474.000000	340.929953 
474.500000	339.194114 
475.000000	337.405756 
475.500000	335.570411 
476.000000	333.701199 
476.500000	331.829841 
477.000000	329.964604 
477.500000	328.163322 
478.000000	326.419359 
478.500000	324.712998 
479.000000	323.036216 
479.500000	321.358145 
480.000000	319.653211 
480.500000	317.909578 
481.000000	316.143946 
481.500000	314.308530 
482.000000	312.431652 
482.500000	310.509424 
483.000000	308.540571 
483.500000	306.530724 
484.000000	304.489329 
484.500000	302.428229 
485.000000	300.365429 
485.500000	298.332594 
486.000000	296.313638 
486.500000	294.300807 
487.000000	292.281661 
487.500000	290.260560 
488.000000	288.199093 
488.500000	286.087883 
489.000000	283.915479 
489.500000	281.689384 
490.000000	279.438222 
490.500000	277.174244 
491.000000	274.876987 
491.500000	272.545390 
492.000000	270.218878 
492.500000	267.863487 
493.000000	265.488420 
493.500000	263.093515 
494.000000	260.677093 
494.500000	258.244658 
495.000000	255.852315 
495.500000	253.498121 
496.000000	251.165108 
496.500000	248.842513 
497.000000	246.521247 
497.500000	244.215575 
498.000000	241.919600 
498.500000	239.607520 
499.000000	237.262149 
499.500000	234.913435 
500.000000	232.557948 
500.500000	230.193565 
501.000000	227.815343 
501.500000	225.446618 
502.000000	223.102896 
502.500000	220.783489 
503.000000	218.483156 
503.500000	216.185293 
504.000000	213.910046 
504.500000	211.644014 
505.000000	209.351844 
505.500000	207.008605 
506.000000	204.653877 
506.500000	202.299639 
507.000000	199.930741 
507.500000	197.554930 
508.000000	195.181672 
508.500000	192.822817 
509.000000	190.492696 
509.500000	188.160900 
510.000000	185.779008 
510.500000	183.385981 
511.000000	180.976037 
511.500000	178.529487 
512.000000	176.041216 
512.500000	173.511084 
513.000000	170.923148 
513.500000	168.299796 
514.000000	165.656177 
514.500000	162.955742 
515.000000	160.251256 
515.500000	157.558571 
516.000000	154.888033 
516.500000	152.247185 
517.000000	149.643741 
517.500000	147.063732 
518.000000	144.509180 
518.500000	141.966798 
519.000000	139.383401 
519.500000	136.775845 
520.000000	134.139596 
520.500000	131.467448 
521.000000	128.770519 
521.500000	126.063649 
522.000000	123.362494 
522.500000	120.707561 
523.000000	118.106062 
523.500000	115.539102 
524.000000	113.026398 
524.500000	110.569689 
525.000000	108.151364 
525.500000	105.778248 
526.000000	103.440671 
526.500000	101.128241 
527.000000	98.843764  
527.500000	96.588727  
528.000000	94.354064  
528.500000	92.149164  
529.000000	89.965672  
529.500000	87.802050  
530.000000	85.672244  
530.500000	83.590932  
531.000000	81.563484  
531.500000	79.584154  
532.000000	77.655834  
532.500000	75.775001  
533.000000	73.942713  
533.500000	72.143709  
534.000000	70.374033  
534.500000	68.633351  
535.000000	66.931893  
535.500000	65.283683  
536.000000	63.695617  
536.500000	62.166417  
537.000000	60.696864  
537.500000	59.285861  
538.000000	57.922924  
538.500000	56.608274  
539.000000	55.326910  
539.500000	54.074620  
540.000000	52.838125  
540.500000	51.624480  
541.000000	50.429381  
541.500000	49.248703  
542.000000	48.083158  
542.500000	46.939087  
543.000000	45.820204  
543.500000	44.730144  
544.000000	43.678020  
544.500000	42.651764  
545.000000	41.663086  
545.500000	40.715258  
546.000000	39.800486  
546.500000	38.915755  
547.000000	38.061369  
547.500000	37.233739  
548.000000	36.428418  
548.500000	35.656823  
549.000000	34.900409  
549.500000	34.156868  
550.000000	33.432886  
550.500000	32.723189  
551.000000	32.026016  
551.500000	31.333890  
552.000000	30.647296  
552.500000	29.973368  
553.000000	29.321738  
553.500000	28.688835  
554.000000	28.069487  
554.500000	27.473269  
555.000000	26.902028  
555.500000	26.362970  
556.000000	25.834218  
556.500000	25.311478  
557.000000	24.796656  
557.500000	24.283995  
558.000000	23.774096  
558.500000	23.259861  
559.000000	22.748637  
559.500000	22.241714  
560.000000	21.751770  
560.500000	21.274425  
561.000000	20.813687  
561.500000	20.373478  
562.000000	19.946971  
562.500000	19.539026  
563.000000	19.144972  
563.500000	18.765568  
564.000000	18.391418  
564.500000	18.021061  
565.000000	17.650454  
565.500000	17.284853  
566.000000	16.921279  
566.500000	16.556606  
567.000000	16.198274  
567.500000	15.849888  
568.000000	15.516366  
568.500000	15.193083  
569.000000	14.874849  
569.500000	14.562934  
570.000000	14.261117  
570.500000	13.968163  
571.000000	13.681866  
571.500000	13.404889  
572.000000	13.137275  
572.500000	12.879673  
573.000000	12.624264  
573.500000	12.365831  
574.000000	12.102496  
574.500000	11.833313  
575.000000	11.560421  
575.500000	11.288131  
576.000000	11.023823  
576.500000	10.771102  
577.000000	10.533100  
577.500000	10.307412  
578.000000	10.091939  
578.500000	9.886766   
579.000000	9.686832   
579.500000	9.488879   
580.000000	9.292326   
580.500000	9.098048   
581.000000	8.904683   
581.500000	8.713818   
582.000000	8.526915   
582.500000	8.342044   
583.000000	8.160827   
583.500000	7.986586   
584.000000	7.816699   
584.500000	7.651189   
585.000000	7.492094   
585.500000	7.338649   
586.000000	7.189337   
586.500000	7.048486   
587.000000	6.913162   
587.500000	6.781538   
588.000000	6.653825   
588.500000	6.529007   
589.000000	6.407264   
589.500000	6.288294   
590.000000	6.169870   
590.500000	6.051859   
591.000000	5.939611   
591.500000	5.833789   
592.000000	5.732189   
592.500000	5.633277   
593.000000	5.538079   
593.500000	5.446852   
594.000000	5.359453   
594.500000	5.270533   

