PE FL                   SPECTRUM    ASCII       PEDS        1.60        
  -1
DMD605~1.TXT
18/03/08
10:40:07.00
18/03/08
10:40:07.00


596.500000
1









LS55
350.00
11.00
2.90
SCAN
1
20
100
100
0
60
0
1
0
1
7
ON
600 350 
1 0 0
#HDR
-1
-1
#GR
NM

0.00002384185791015625
0.0
400.000000
0.500000
394
8
931.253384
2.656465
#DATA
400.000000	27.771999  
400.500000	30.482949  
401.000000	33.207039  
401.500000	35.995762  
402.000000	38.886199  
402.500000	41.901573  
403.000000	45.076623  
403.500000	48.446828  
404.000000	51.993576  
404.500000	55.753308  
405.000000	59.780030  
405.500000	64.135622  
406.000000	68.809803  
406.500000	73.811407  
407.000000	79.068188  
407.500000	84.506400  
408.000000	90.084799  
408.500000	95.889266  
409.000000	101.997291 
409.500000	108.595179 
410.000000	115.734571 
410.500000	123.402421 
411.000000	131.513690 
411.500000	140.114227 
412.000000	149.225556 
412.500000	158.988264 
413.000000	169.495230 
413.500000	180.732450 
414.000000	192.477165 
414.500000	204.686560 
415.000000	217.350616 
415.500000	230.507260 
416.000000	244.249845 
416.500000	258.599813 
417.000000	273.402087 
417.500000	288.614828 
418.000000	304.248380 
418.500000	320.278228 
419.000000	336.842396 
419.500000	353.851361 
420.000000	371.356637 
420.500000	389.368723 
421.000000	407.855150 
421.500000	426.605631 
422.000000	445.479142 
422.500000	463.964032 
423.000000	482.055937 
423.500000	499.815273 
424.000000	517.489926 
424.500000	535.102920 
425.000000	552.853948 
425.500000	570.448567 
426.000000	587.903207 
426.500000	605.112224 
427.000000	622.187881 
427.500000	639.102317 
428.000000	655.978873 
428.500000	672.546926 
429.000000	688.875470 
429.500000	704.841317 
430.000000	720.541301 
430.500000	735.942857 
431.000000	751.007492 
431.500000	765.629771 
432.000000	779.707991 
432.500000	793.088280 
433.000000	805.824471 
433.500000	818.178269 
434.000000	830.072143 
434.500000	841.679820 
435.000000	852.821405 
435.500000	863.314085 
436.000000	873.066069 
436.500000	882.101297 
437.000000	890.189677 
437.500000	897.591965 
438.000000	904.325221 
438.500000	910.412082 
439.000000	915.852909 
439.500000	920.566052 
440.000000	924.351729 
440.500000	927.198700 
441.000000	929.257695 
441.500000	930.573956 
442.000000	931.248846 
442.500000	931.253384 
443.000000	930.671771 
443.500000	929.406704 
444.000000	927.612524 
444.500000	925.310620 
445.000000	922.394790 
445.500000	918.816393 
446.000000	914.767874 
446.500000	910.280025 
447.000000	905.399753 
447.500000	900.211094 
448.000000	894.627124 
448.500000	888.562629 
449.000000	882.252447 
449.500000	875.853086 
450.000000	869.258182 
450.500000	862.420513 
451.000000	855.066115 
451.500000	847.049278 
452.000000	838.504842 
452.500000	829.732124 
453.000000	820.776057 
453.500000	811.945744 
454.000000	803.217843 
454.500000	794.591626 
455.000000	785.906875 
455.500000	777.217513 
456.000000	768.386676 
456.500000	759.469857 
457.000000	750.403543 
457.500000	741.258273 
458.000000	731.850722 
458.500000	722.231100 
459.000000	712.446000 
459.500000	702.519668 
460.000000	692.549589 
460.500000	682.671658 
461.000000	672.935718 
461.500000	663.234792 
462.000000	653.796246 
462.500000	644.569601 
463.000000	635.487383 
463.500000	626.487861 
464.000000	617.597520 
464.500000	608.565362 
465.000000	599.514083 
465.500000	590.581362 
466.000000	581.783651 
466.500000	573.007813 
467.000000	564.483232 
467.500000	556.077676 
468.000000	547.834974 
468.500000	539.890813 
469.000000	532.117284 
469.500000	524.366241 
470.000000	516.718631 
470.500000	509.118514 
471.000000	501.581684 
471.500000	494.224062 
472.000000	487.022128 
472.500000	479.891909 
473.000000	472.817736 
473.500000	465.714015 
474.000000	458.519437 
474.500000	451.324599 
475.000000	444.042071 
475.500000	436.786624 
476.000000	429.596198 
476.500000	422.603592 
477.000000	415.774994 
477.500000	409.084548 
478.000000	402.466935 
478.500000	395.904863 
479.000000	389.347486 
479.500000	382.937251 
480.000000	376.603528 
480.500000	370.358596 
481.000000	364.222974 
481.500000	358.107366 
482.000000	351.884032 
482.500000	345.661557 
483.000000	339.417096 
483.500000	333.209287 
484.000000	327.137529 
484.500000	321.173924 
485.000000	315.238796 
485.500000	309.363171 
486.000000	303.578326 
486.500000	297.975283 
487.000000	292.510203 
487.500000	287.153888 
488.000000	281.793206 
488.500000	276.316850 
489.000000	270.697820 
489.500000	265.051231 
490.000000	259.402331 
490.500000	253.876921 
491.000000	248.523377 
491.500000	243.354751 
492.000000	238.390668 
492.500000	233.662504 
493.000000	229.062680 
493.500000	224.588762 
494.000000	220.180001 
494.500000	215.843340 
495.000000	211.595460 
495.500000	207.451601 
496.000000	203.335560 
496.500000	199.299670 
497.000000	195.296528 
497.500000	191.362955 
498.000000	187.505757 
498.500000	183.711175 
499.000000	179.938059 
499.500000	176.230516 
500.000000	172.560354 
500.500000	169.058739 
501.000000	165.712092 
501.500000	162.495496 
502.000000	159.361075 
502.500000	156.269493 
503.000000	153.164033 
503.500000	150.163336 
504.000000	147.245676 
504.500000	144.391969 
505.000000	141.611440 
505.500000	138.854278 
506.000000	136.047774 
506.500000	133.274302 
507.000000	130.505990 
507.500000	127.757358 
508.000000	125.056761 
508.500000	122.429450 
509.000000	119.900119 
509.500000	117.499026 
510.000000	115.173711 
510.500000	112.872430 
511.000000	110.553157 
511.500000	108.208499 
512.000000	105.829573 
512.500000	103.490476 
513.000000	101.169815 
513.500000	98.839529  
514.000000	96.493567  
514.500000	94.154034  
515.000000	91.834899  
515.500000	89.599262  
516.000000	87.449571  
516.500000	85.335947  
517.000000	83.220369  
517.500000	81.134027  
518.000000	79.102062  
518.500000	77.153362  
519.000000	75.244179  
519.500000	73.335860  
520.000000	71.390606  
520.500000	69.433412  
521.000000	67.493348  
521.500000	65.618920  
522.000000	63.788034  
522.500000	61.992138  
523.000000	60.205015  
523.500000	58.468237  
524.000000	56.784870  
524.500000	55.203322  
525.000000	53.698154  
525.500000	52.213538  
526.000000	50.706570  
526.500000	49.204379  
527.000000	47.711073  
527.500000	46.266549  
528.000000	44.893974  
528.500000	43.573336  
529.000000	42.281087  
529.500000	41.029471  
530.000000	39.784824  
530.500000	38.548987  
531.000000	37.358517  
531.500000	36.222856  
532.000000	35.137096  
532.500000	34.128599  
533.000000	33.172259  
533.500000	32.231330  
534.000000	31.299894  
534.500000	30.385990  
535.000000	29.482465  
535.500000	28.620418  
536.000000	27.797044  
536.500000	26.996882  
537.000000	26.217972  
537.500000	25.466359  
538.000000	24.749476  
538.500000	24.076456  
539.000000	23.442094  
539.500000	22.826245  
540.000000	22.214821  
540.500000	21.605965  
541.000000	21.012635  
541.500000	20.440825  
542.000000	19.899677  
542.500000	19.368393  
543.000000	18.856108  
543.500000	18.352792  
544.000000	17.860068  
544.500000	17.382025  
545.000000	16.920390  
545.500000	16.467112  
546.000000	16.027509  
546.500000	15.603463  
547.000000	15.195061  
547.500000	14.818185  
548.000000	14.468168  
548.500000	14.139398  
549.000000	13.821747  
549.500000	13.516716  
550.000000	13.209435  
550.500000	12.904129  
551.000000	12.592085  
551.500000	12.271292  
552.000000	11.956316  
552.500000	11.658369  
553.000000	11.382267  
553.500000	11.124817  
554.000000	10.878536  
554.500000	10.627350  
555.000000	10.374260  
555.500000	10.124278  
556.000000	9.894168   
556.500000	9.683430   
557.000000	9.481585   
557.500000	9.277382   
558.000000	9.072513   
558.500000	8.864092   
559.000000	8.662542   
559.500000	8.478774   
560.000000	8.299651   
560.500000	8.130189   
561.000000	7.963839   
561.500000	7.799875   
562.000000	7.634040   
562.500000	7.469474   
563.000000	7.303843   
563.500000	7.143988   
564.000000	6.988355   
564.500000	6.844184   
565.000000	6.709997   
565.500000	6.581131   
566.000000	6.454545   
566.500000	6.337687   
567.000000	6.221910   
567.500000	6.104631   
568.000000	5.996417   
568.500000	5.889553   
569.000000	5.775786   
569.500000	5.662291   
570.000000	5.547112   
570.500000	5.429386   
571.000000	5.319055   
571.500000	5.221320   
572.000000	5.124967   
572.500000	5.034139   
573.000000	4.945277   
573.500000	4.860172   
574.000000	4.774087   
574.500000	4.691535   
575.000000	4.608465   
575.500000	4.521891   
576.000000	4.432237   
576.500000	4.349676   
577.000000	4.275015   
577.500000	4.206320   
578.000000	4.146781   
578.500000	4.087047   
579.000000	4.027453   
579.500000	3.965945   
580.000000	3.904895   
580.500000	3.836160   
581.000000	3.767280   
581.500000	3.694129   
582.000000	3.625337   
582.500000	3.560398   
583.000000	3.505693   
583.500000	3.455005   
584.000000	3.412175   
584.500000	3.369873   
585.000000	3.326276   
585.500000	3.283087   
586.000000	3.243916   
586.500000	3.203663   
587.000000	3.168040   
587.500000	3.136846   
588.000000	3.100987   
588.500000	3.064807   
589.000000	3.029940   
589.500000	2.991076   
590.000000	2.952615   
590.500000	2.919938   
591.000000	2.889774   
591.500000	2.864196   
592.000000	2.847344   
592.500000	2.833772   
593.000000	2.817570   
593.500000	2.798810   
594.000000	2.772227   
594.500000	2.740944   
595.000000	2.715359   
595.500000	2.694320   
596.000000	2.674847   
596.500000	2.656465   

