PE FL                   SPECTRUM    ASCII       PEDS        1.60        
  -1
DMDEE0~1.TXT
18/03/06
14:30:19.00
18/03/06
14:30:19.00


596.500000
1









LS55
350.00
11.00
3.20
SCAN
1
20
100
100
0
60
0
1
0
1
7
ON
600 350 
1 0 0
#HDR
-1
-1
#GR
NM

0.00002384185791015625
0.0
400.000000
0.500000
394
8
641.805118
4.203336
#DATA
400.000000	81.221999  
400.500000	87.663429  
401.000000	93.973357  
401.500000	100.200896 
402.000000	106.420781 
402.500000	112.787351 
403.000000	119.480171 
403.500000	126.570700 
404.000000	133.983245 
404.500000	141.682640 
405.000000	149.611836 
405.500000	157.783525 
406.000000	166.167446 
406.500000	174.744439 
407.000000	183.489778 
407.500000	192.359046 
408.000000	201.229073 
408.500000	210.147640 
409.000000	219.201675 
409.500000	228.496269 
410.000000	238.119436 
410.500000	248.123774 
411.000000	258.393004 
411.500000	268.891898 
412.000000	279.574804 
412.500000	290.488499 
413.000000	301.662595 
413.500000	313.190868 
414.000000	324.831129 
414.500000	336.501827 
415.000000	348.059238 
415.500000	359.405460 
416.000000	370.582055 
416.500000	381.738218 
417.000000	392.841150 
417.500000	403.967464 
418.000000	415.234111 
418.500000	426.458482 
419.000000	437.564475 
419.500000	448.516001 
420.000000	459.319797 
420.500000	469.924097 
421.000000	480.477873 
421.500000	490.811410 
422.000000	500.924029 
422.500000	510.524267 
423.000000	519.618682 
423.500000	528.122228 
424.000000	536.151967 
424.500000	543.712447 
425.000000	551.012071 
425.500000	558.031670 
426.000000	564.806852 
426.500000	571.407529 
427.000000	577.876902 
427.500000	584.107150 
428.000000	590.097334 
428.500000	595.816361 
429.000000	601.174744 
429.500000	606.106990 
430.000000	610.654273 
430.500000	614.834064 
431.000000	618.666938 
431.500000	622.227281 
432.000000	625.488930 
432.500000	628.388722 
433.000000	630.992244 
433.500000	633.307397 
434.000000	635.348410 
434.500000	637.139750 
435.000000	638.675853 
435.500000	639.887920 
436.000000	640.807926 
436.500000	641.437223 
437.000000	641.744677 
437.500000	641.805118 
438.000000	641.502815 
438.500000	640.875264 
439.000000	639.918755 
439.500000	638.739200 
440.000000	637.350430 
440.500000	635.740269 
441.000000	633.833048 
441.500000	631.688429 
442.000000	629.276145 
442.500000	626.662271 
443.000000	623.907751 
443.500000	620.858548 
444.000000	617.439863 
444.500000	613.811019 
445.000000	609.967478 
445.500000	606.024917 
446.000000	602.166596 
446.500000	598.355486 
447.000000	594.476432 
447.500000	590.560242 
448.000000	586.497806 
448.500000	582.312456 
449.000000	577.907161 
449.500000	573.426152 
450.000000	568.802025 
450.500000	564.207377 
451.000000	559.590564 
451.500000	555.139821 
452.000000	550.689008 
452.500000	546.277999 
453.000000	541.799057 
453.500000	537.249135 
454.000000	532.505069 
454.500000	527.698348 
455.000000	522.851432 
455.500000	518.011719 
456.000000	513.126608 
456.500000	508.247447 
457.000000	503.310333 
457.500000	498.306490 
458.000000	493.270246 
458.500000	488.254613 
459.000000	483.179138 
459.500000	478.074587 
460.000000	472.986757 
460.500000	467.876005 
461.000000	462.820255 
461.500000	457.930481 
462.000000	453.144390 
462.500000	448.438603 
463.000000	443.798852 
463.500000	439.151439 
464.000000	434.472322 
464.500000	429.842071 
465.000000	425.343231 
465.500000	420.947203 
466.000000	416.599075 
466.500000	412.253981 
467.000000	407.926241 
467.500000	403.578330 
468.000000	399.285951 
468.500000	395.162952 
469.000000	391.150206 
469.500000	387.218114 
470.000000	383.289370 
470.500000	379.388354 
471.000000	375.459768 
471.500000	371.634013 
472.000000	367.971442 
472.500000	364.465478 
473.000000	360.964546 
473.500000	357.523048 
474.000000	353.988064 
474.500000	350.423213 
475.000000	346.889693 
475.500000	343.423076 
476.000000	339.971880 
476.500000	336.545481 
477.000000	333.094504 
477.500000	329.781490 
478.000000	326.687195 
478.500000	323.735623 
479.000000	320.884263 
479.500000	318.039550 
480.000000	315.029322 
480.500000	312.013679 
481.000000	309.094550 
481.500000	306.271177 
482.000000	303.526821 
482.500000	300.815094 
483.000000	298.004132 
483.500000	295.173949 
484.000000	292.369672 
484.500000	289.636470 
485.000000	286.894860 
485.500000	284.146384 
486.000000	281.432125 
486.500000	278.797209 
487.000000	276.284400 
487.500000	273.888769 
488.000000	271.377661 
488.500000	268.682341 
489.000000	265.879361 
489.500000	263.016228 
490.000000	260.188492 
490.500000	257.573949 
491.000000	254.996907 
491.500000	252.461313 
492.000000	249.987659 
492.500000	247.591673 
493.000000	245.176205 
493.500000	242.859719 
494.000000	240.510740 
494.500000	238.226609 
495.000000	235.988882 
495.500000	233.819843 
496.000000	231.627913 
496.500000	229.460316 
497.000000	227.252107 
497.500000	225.089635 
498.000000	222.999528 
498.500000	220.935849 
499.000000	218.799463 
499.500000	216.608807 
500.000000	214.345665 
500.500000	212.076536 
501.000000	209.951716 
501.500000	207.948634 
502.000000	205.998531 
502.500000	204.042320 
503.000000	202.035079 
503.500000	199.942754 
504.000000	197.814118 
504.500000	195.668403 
505.000000	193.542701 
505.500000	191.412591 
506.000000	189.263271 
506.500000	187.073121 
507.000000	184.866500 
507.500000	182.606410 
508.000000	180.379548 
508.500000	178.167492 
509.000000	175.970931 
509.500000	173.798587 
510.000000	171.678295 
510.500000	169.513827 
511.000000	167.323336 
511.500000	165.077931 
512.000000	162.748659 
512.500000	160.301846 
513.000000	157.850206 
513.500000	155.345952 
514.000000	152.849181 
514.500000	150.388757 
515.000000	147.933838 
515.500000	145.444412 
516.000000	142.973311 
516.500000	140.492871 
517.000000	138.024535 
517.500000	135.609548 
518.000000	133.212051 
518.500000	130.732435 
519.000000	128.169205 
519.500000	125.507899 
520.000000	122.793913 
520.500000	120.132790 
521.000000	117.591334 
521.500000	115.112248 
522.000000	112.698716 
522.500000	110.303944 
523.000000	107.892052 
523.500000	105.489407 
524.000000	103.173390 
524.500000	100.884068 
525.000000	98.647382  
525.500000	96.431532  
526.000000	94.217634  
526.500000	92.042828  
527.000000	89.917135  
527.500000	87.807196  
528.000000	85.712856  
528.500000	83.613111  
529.000000	81.492430  
529.500000	79.425369  
530.000000	77.446160  
530.500000	75.537072  
531.000000	73.706629  
531.500000	71.947991  
532.000000	70.206993  
532.500000	68.487203  
533.000000	66.850592  
533.500000	65.253859  
534.000000	63.691090  
534.500000	62.179778  
535.000000	60.702298  
535.500000	59.212369  
536.000000	57.781898  
536.500000	56.375647  
537.000000	55.004288  
537.500000	53.689338  
538.000000	52.439538  
538.500000	51.215200  
539.000000	50.023702  
539.500000	48.856633  
540.000000	47.731047  
540.500000	46.642331  
541.000000	45.609305  
541.500000	44.626421  
542.000000	43.669821  
542.500000	42.716456  
543.000000	41.776652  
543.500000	40.825083  
544.000000	39.895255  
544.500000	39.002952  
545.000000	38.134069  
545.500000	37.277414  
546.000000	36.449178  
546.500000	35.631221  
547.000000	34.837273  
547.500000	34.079051  
548.000000	33.377733  
548.500000	32.693797  
549.000000	32.019100  
549.500000	31.359290  
550.000000	30.709800  
550.500000	30.052765  
551.000000	29.420170  
551.500000	28.794283  
552.000000	28.166903  
552.500000	27.545032  
553.000000	26.945623  
553.500000	26.345622  
554.000000	25.771797  
554.500000	25.231214  
555.000000	24.722571  
555.500000	24.236379  
556.000000	23.762709  
556.500000	23.278620  
557.000000	22.773767  
557.500000	22.250435  
558.000000	21.720005  
558.500000	21.209952  
559.000000	20.715834  
559.500000	20.241400  
560.000000	19.783191  
560.500000	19.348023  
561.000000	18.917799  
561.500000	18.516000  
562.000000	18.128358  
562.500000	17.756443  
563.000000	17.391026  
563.500000	17.036970  
564.000000	16.678160  
564.500000	16.328889  
565.000000	15.983264  
565.500000	15.652099  
566.000000	15.322810  
566.500000	14.995165  
567.000000	14.662284  
567.500000	14.330884  
568.000000	13.990361  
568.500000	13.652362  
569.000000	13.320754  
569.500000	13.004853  
570.000000	12.700676  
570.500000	12.426471  
571.000000	12.172619  
571.500000	11.932221  
572.000000	11.690669  
572.500000	11.451394  
573.000000	11.204852  
573.500000	10.959822  
574.000000	10.721737  
574.500000	10.493216  
575.000000	10.261796  
575.500000	10.036239  
576.000000	9.811036   
576.500000	9.586804   
577.000000	9.366408   
577.500000	9.158302   
578.000000	8.947977   
578.500000	8.743412   
579.000000	8.552119   
579.500000	8.370359   
580.000000	8.190211   
580.500000	8.014285   
581.000000	7.831078   
581.500000	7.643188   
582.000000	7.458715   
582.500000	7.281407   
583.000000	7.114980   
583.500000	6.962735   
584.000000	6.821059   
584.500000	6.684324   
585.000000	6.548099   
585.500000	6.409647   
586.000000	6.270914   
586.500000	6.127841   
587.000000	5.987347   
587.500000	5.856319   
588.000000	5.730859   
588.500000	5.611577   
589.000000	5.502631   
589.500000	5.403543   
590.000000	5.310211   
590.500000	5.223736   
591.000000	5.133061   
591.500000	5.035080   
592.000000	4.936253   
592.500000	4.843781   
593.000000	4.752730   
593.500000	4.669574   
594.000000	4.589030   
594.500000	4.506157   
595.000000	4.423958   
595.500000	4.350987   
596.000000	4.275535   
596.500000	4.203336   

