PE FL                   SPECTRUM    ASCII       PEDS        1.60        
  -1
DMDAF0~2.TXT
18/03/08
12:07:27.00
18/03/08
12:07:27.00


596.500000
1









LS55
350.00
11.00
2.90
SCAN
1
20
100
100
0
60
0
1
0
1
7
ON
600 350 
1 0 0
#HDR
-1
-1
#GR
NM

0.00002384185791015625
0.0
400.000000
0.500000
394
8
694.317977
3.915232
#DATA
400.000000	35.688000  
400.500000	38.443672  
401.000000	41.336907  
401.500000	44.429647  
402.000000	47.691531  
402.500000	51.088794  
403.000000	54.597735  
403.500000	58.250672  
404.000000	62.125486  
404.500000	66.305153  
405.000000	70.789299  
405.500000	75.639280  
406.000000	80.823333  
406.500000	86.335292  
407.000000	92.127638  
407.500000	98.170302  
408.000000	104.344022 
408.500000	110.722582 
409.000000	117.381831 
409.500000	124.480121 
410.000000	132.088753 
410.500000	140.158027 
411.000000	148.536043 
411.500000	157.326945 
412.000000	166.549331 
412.500000	176.318460 
413.000000	186.683630 
413.500000	197.521252 
414.000000	208.533647 
414.500000	219.634312 
415.000000	230.773251 
415.500000	241.960535 
416.000000	253.336599 
416.500000	264.928108 
417.000000	276.566251 
417.500000	288.253882 
418.000000	300.055907 
418.500000	311.914608 
419.000000	323.942839 
419.500000	336.128721 
420.000000	348.456587 
420.500000	360.929273 
421.000000	373.662594 
421.500000	386.454913 
422.000000	399.284029 
422.500000	411.907122 
423.000000	424.160910 
423.500000	436.052291 
424.000000	447.711754 
424.500000	459.167750 
425.000000	470.616854 
425.500000	481.929344 
426.000000	493.092935 
426.500000	504.042648 
427.000000	514.630765 
427.500000	524.884796 
428.000000	534.742906 
428.500000	544.019705 
429.000000	552.882994 
429.500000	561.476789 
430.000000	569.920529 
430.500000	578.534573 
431.000000	587.236655 
431.500000	595.753945 
432.000000	603.991970 
432.500000	611.628832 
433.000000	618.704979 
433.500000	625.601428 
434.000000	632.285594 
434.500000	638.817714 
435.000000	645.325093 
435.500000	651.509439 
436.000000	657.437582 
436.500000	663.318782 
437.000000	668.874553 
437.500000	674.052040 
438.000000	678.784594 
438.500000	682.747956 
439.000000	685.793905 
439.500000	688.271179 
440.000000	690.070454 
440.500000	691.349110 
441.000000	692.403107 
441.500000	693.241479 
442.000000	693.757725 
442.500000	694.199821 
443.000000	694.317977 
443.500000	693.968442 
444.000000	693.238205 
444.500000	692.092481 
445.000000	690.388216 
445.500000	688.443382 
446.000000	686.324517 
446.500000	684.020970 
447.000000	681.528454 
447.500000	678.797214 
448.000000	675.712786 
448.500000	672.446493 
449.000000	669.061373 
449.500000	665.679846 
450.000000	662.252821 
450.500000	658.679882 
451.000000	654.729387 
451.500000	650.459718 
452.000000	645.868405 
452.500000	641.104263 
453.000000	636.220200 
453.500000	631.267849 
454.000000	626.152391 
454.500000	621.053902 
455.000000	615.940536 
455.500000	610.816682 
456.000000	605.574638 
456.500000	600.223485 
457.000000	594.695511 
457.500000	589.111460 
458.000000	583.583401 
458.500000	578.237447 
459.000000	572.922921 
459.500000	567.524389 
460.000000	562.080794 
460.500000	556.637235 
461.000000	551.312875 
461.500000	546.222821 
462.000000	541.390449 
462.500000	536.545635 
463.000000	531.767525 
463.500000	527.019548 
464.000000	522.331535 
464.500000	517.689874 
465.000000	513.271069 
465.500000	508.892164 
466.000000	504.583170 
466.500000	500.347266 
467.000000	496.218269 
467.500000	491.979333 
468.000000	487.725347 
468.500000	483.380694 
469.000000	479.019821 
469.500000	474.647704 
470.000000	470.418055 
470.500000	466.261482 
471.000000	462.214463 
471.500000	458.234930 
472.000000	454.327073 
472.500000	450.371899 
473.000000	446.399389 
473.500000	442.392581 
474.000000	438.421661 
474.500000	434.466384 
475.000000	430.569955 
475.500000	426.678259 
476.000000	422.722702 
476.500000	418.711930 
477.000000	414.703644 
477.500000	410.723609 
478.000000	406.773815 
478.500000	402.929352 
479.000000	399.152078 
479.500000	395.406253 
480.000000	391.715563 
480.500000	388.012281 
481.000000	384.265400 
481.500000	380.484472 
482.000000	376.611474 
482.500000	372.704668 
483.000000	368.814326 
483.500000	364.966887 
484.000000	361.195153 
484.500000	357.551118 
485.000000	353.914765 
485.500000	350.270974 
486.000000	346.619631 
486.500000	342.949680 
487.000000	339.286251 
487.500000	335.665129 
488.000000	331.980744 
488.500000	328.245970 
489.000000	324.476154 
489.500000	320.720476 
490.000000	316.942129 
490.500000	313.198444 
491.000000	309.417800 
491.500000	305.585740 
492.000000	301.745524 
492.500000	297.931729 
493.000000	294.118032 
493.500000	290.432899 
494.000000	286.875520 
494.500000	283.465820 
495.000000	280.190241 
495.500000	276.967679 
496.000000	273.582735 
496.500000	270.098338 
497.000000	266.501203 
497.500000	262.913232 
498.000000	259.408693 
498.500000	256.026914 
499.000000	252.681218 
499.500000	249.426503 
500.000000	246.215753 
500.500000	243.087807 
501.000000	240.054304 
501.500000	237.078531 
502.000000	234.072319 
502.500000	231.169683 
503.000000	228.341320 
503.500000	225.564834 
504.000000	222.792594 
504.500000	219.974562 
505.000000	217.008620 
505.500000	214.029146 
506.000000	211.140092 
506.500000	208.386888 
507.000000	205.742253 
507.500000	203.163051 
508.000000	200.534442 
508.500000	197.851729 
509.000000	195.154548 
509.500000	192.480129 
510.000000	189.807140 
510.500000	187.121663 
511.000000	184.370147 
511.500000	181.528755 
512.000000	178.659866 
512.500000	175.740598 
513.000000	172.800373 
513.500000	169.886589 
514.000000	166.952555 
514.500000	163.975750 
515.000000	161.045684 
515.500000	158.107292 
516.000000	155.133372 
516.500000	152.183153 
517.000000	149.222041 
517.500000	146.258139 
518.000000	143.381736 
518.500000	140.560760 
519.000000	137.731562 
519.500000	134.868479 
520.000000	131.902336 
520.500000	128.857735 
521.000000	125.820821 
521.500000	122.861852 
522.000000	119.956722 
522.500000	117.102266 
523.000000	114.286283 
523.500000	111.503627 
524.000000	108.805654 
524.500000	106.227940 
525.000000	103.740725 
525.500000	101.292898 
526.000000	98.849525  
526.500000	96.399866  
527.000000	93.960542  
527.500000	91.565337  
528.000000	89.211585  
528.500000	86.877821  
529.000000	84.576510  
529.500000	82.313769  
530.000000	80.109377  
530.500000	77.970790  
531.000000	75.901527  
531.500000	73.872788  
532.000000	71.911743  
532.500000	70.041224  
533.000000	68.238175  
533.500000	66.480080  
534.000000	64.759560  
534.500000	63.051103  
535.000000	61.364552  
535.500000	59.730263  
536.000000	58.174559  
536.500000	56.676633  
537.000000	55.218048  
537.500000	53.809131  
538.000000	52.434270  
538.500000	51.086684  
539.000000	49.786627  
539.500000	48.535340  
540.000000	47.314223  
540.500000	46.144472  
541.000000	45.059972  
541.500000	44.016203  
542.000000	42.985670  
542.500000	41.949069  
543.000000	40.907608  
543.500000	39.841492  
544.000000	38.818196  
544.500000	37.850762  
545.000000	36.942521  
545.500000	36.067506  
546.000000	35.229404  
546.500000	34.390133  
547.000000	33.580956  
547.500000	32.816479  
548.000000	32.106675  
548.500000	31.435708  
549.000000	30.800391  
549.500000	30.160882  
550.000000	29.518451  
550.500000	28.864656  
551.000000	28.206949  
551.500000	27.553818  
552.000000	26.934142  
552.500000	26.318483  
553.000000	25.733483  
553.500000	25.188221  
554.000000	24.657118  
554.500000	24.124613  
555.000000	23.621245  
555.500000	23.119511  
556.000000	22.627479  
556.500000	22.139150  
557.000000	21.647082  
557.500000	21.146375  
558.000000	20.647465  
558.500000	20.156794  
559.000000	19.687627  
559.500000	19.247426  
560.000000	18.823541  
560.500000	18.422629  
561.000000	18.020619  
561.500000	17.611726  
562.000000	17.202815  
562.500000	16.802698  
563.000000	16.414824  
563.500000	16.058266  
564.000000	15.722333  
564.500000	15.405557  
565.000000	15.094345  
565.500000	14.782348  
566.000000	14.466546  
566.500000	14.150875  
567.000000	13.827061  
567.500000	13.501461  
568.000000	13.186465  
568.500000	12.879804  
569.000000	12.599976  
569.500000	12.343443  
570.000000	12.093934  
570.500000	11.836153  
571.000000	11.576882  
571.500000	11.308463  
572.000000	11.050535  
572.500000	10.813516  
573.000000	10.597472  
573.500000	10.383510  
574.000000	10.167189  
574.500000	9.933461   
575.000000	9.689082   
575.500000	9.443677   
576.000000	9.212210   
576.500000	8.992548   
577.000000	8.790867   
577.500000	8.602963   
578.000000	8.421206   
578.500000	8.241224   
579.000000	8.061160   
579.500000	7.884085   
580.000000	7.710923   
580.500000	7.545354   
581.000000	7.384192   
581.500000	7.220337   
582.000000	7.047223   
582.500000	6.880175   
583.000000	6.719094   
583.500000	6.571481   
584.000000	6.439410   
584.500000	6.315340   
585.000000	6.179451   
585.500000	6.045138   
586.000000	5.911613   
586.500000	5.780472   
587.000000	5.657474   
587.500000	5.545059   
588.000000	5.437350   
588.500000	5.335086   
589.000000	5.235418   
589.500000	5.136602   
590.000000	5.030436   
590.500000	4.920885   
591.000000	4.816489   
591.500000	4.718790   
592.000000	4.623673   
592.500000	4.539647   
593.000000	4.459700   
593.500000	4.378984   
594.000000	4.301905   
594.500000	4.229108   
595.000000	4.149380   
595.500000	4.070538   
596.000000	3.992177   
596.500000	3.915232   

