PE FL                   SPECTRUM    ASCII       PEDS        1.60        
  -1
DM0AA6~1.TXT
18/03/13
15:23:47.00
18/03/13
15:23:47.00


594.500000
1









LS55
350.00
11.00
9.00
SCAN
1
20
100
100
0
60
0
1
0
1
7
ON
600 350 
1 0 0
#HDR
-1
-1
#GR
NM

0.00002384185791015625
0.0
400.000000
0.500000
390
8
405.363586
5.503812
#DATA
400.000000	56.080000  
400.500000	58.102823  
401.000000	60.179939  
401.500000	62.342270  
402.000000	64.626208  
402.500000	67.037356  
403.000000	69.604688  
403.500000	72.312607  
404.000000	75.158300  
404.500000	78.147244  
405.000000	81.300831  
405.500000	84.630419  
406.000000	88.112907  
406.500000	91.738740  
407.000000	95.463636  
407.500000	99.294906  
408.000000	103.215062 
408.500000	107.202712 
409.000000	111.270050 
409.500000	115.437879 
410.000000	119.754950 
410.500000	124.262221 
411.000000	128.994825 
411.500000	133.950219 
412.000000	139.158260 
412.500000	144.607899 
413.000000	150.256079 
413.500000	156.086237 
414.000000	162.025916 
414.500000	168.053582 
415.000000	174.147848 
415.500000	180.282800 
416.000000	186.425749 
416.500000	192.596096 
417.000000	198.792048 
417.500000	205.011775 
418.000000	211.248448 
418.500000	217.499979 
419.000000	223.808949 
419.500000	230.186264 
420.000000	236.603424 
420.500000	243.033187 
421.000000	249.471960 
421.500000	255.887705 
422.000000	262.242038 
422.500000	268.431748 
423.000000	274.384440 
423.500000	280.121455 
424.000000	285.658427 
424.500000	290.998042 
425.000000	296.140336 
425.500000	301.101297 
426.000000	305.961185 
426.500000	310.777186 
427.000000	315.521518 
427.500000	320.183343 
428.000000	324.756017 
428.500000	329.268947 
429.000000	333.705776 
429.500000	338.044848 
430.000000	342.230253 
430.500000	346.259771 
431.000000	350.135961 
431.500000	353.848758 
432.000000	357.422070 
432.500000	360.828494 
433.000000	364.130614 
433.500000	367.338226 
434.000000	370.469191 
434.500000	373.493187 
435.000000	376.444005 
435.500000	379.290106 
436.000000	382.015882 
436.500000	384.628779 
437.000000	387.059112 
437.500000	389.317812 
438.000000	391.412523 
438.500000	393.345569 
439.000000	395.101440 
439.500000	396.743608 
440.000000	398.229801 
440.500000	399.602391 
441.000000	400.880663 
441.500000	402.006753 
442.000000	402.965224 
442.500000	403.785875 
443.000000	404.455743 
443.500000	404.931353 
444.000000	405.249390 
444.500000	405.363586 
445.000000	405.362970 
445.500000	405.275079 
446.000000	405.092091 
446.500000	404.805357 
447.000000	404.470739 
447.500000	404.086676 
448.000000	403.627010 
448.500000	403.090073 
449.000000	402.439647 
449.500000	401.723605 
450.000000	400.947479 
450.500000	400.071378 
451.000000	399.107876 
451.500000	398.068915 
452.000000	396.963785 
452.500000	395.765837 
453.000000	394.483142 
453.500000	393.112753 
454.000000	391.714747 
454.500000	390.286458 
455.000000	388.815096 
455.500000	387.317120 
456.000000	385.821645 
456.500000	384.327892 
457.000000	382.777321 
457.500000	381.199089 
458.000000	379.583441 
458.500000	377.959305 
459.000000	376.325233 
459.500000	374.667106 
460.000000	372.968620 
460.500000	371.260010 
461.000000	369.572925 
461.500000	367.887636 
462.000000	366.245708 
462.500000	364.665052 
463.000000	363.144382 
463.500000	361.683943 
464.000000	360.292746 
464.500000	358.879977 
465.000000	357.449769 
465.500000	356.014702 
466.000000	354.548383 
466.500000	353.055659 
467.000000	351.584071 
467.500000	350.121314 
468.000000	348.684861 
468.500000	347.295853 
469.000000	345.911970 
469.500000	344.548026 
470.000000	343.228231 
470.500000	341.929154 
471.000000	340.641448 
471.500000	339.421916 
472.000000	338.256973 
472.500000	337.135228 
473.000000	336.030864 
473.500000	334.893377 
474.000000	333.731336 
474.500000	332.551665 
475.000000	331.328404 
475.500000	330.040507 
476.000000	328.724955 
476.500000	327.418884 
477.000000	326.154969 
477.500000	324.893078 
478.000000	323.639664 
478.500000	322.412099 
479.000000	321.215297 
479.500000	320.019071 
480.000000	318.770238 
480.500000	317.444086 
481.000000	316.031275 
481.500000	314.565261 
482.000000	313.008486 
482.500000	311.402669 
483.000000	309.789564 
483.500000	308.181330 
484.000000	306.611823 
484.500000	305.084506 
485.000000	303.565664 
485.500000	302.033853 
486.000000	300.475217 
486.500000	298.860483 
487.000000	297.190294 
487.500000	295.452476 
488.000000	293.632953 
488.500000	291.743950 
489.000000	289.818087 
489.500000	287.860168 
490.000000	285.898611 
490.500000	283.901119 
491.000000	281.894129 
491.500000	279.922939 
492.000000	277.978233 
492.500000	276.057428 
493.000000	274.121265 
493.500000	272.160708 
494.000000	270.142405 
494.500000	268.085061 
495.000000	265.948864 
495.500000	263.733201 
496.000000	261.460950 
496.500000	259.128958 
497.000000	256.794090 
497.500000	254.454311 
498.000000	252.122088 
498.500000	249.792651 
499.000000	247.491166 
499.500000	245.228671 
500.000000	243.001996 
500.500000	240.777269 
501.000000	238.524612 
501.500000	236.280527 
502.000000	234.039022 
502.500000	231.801769 
503.000000	229.560376 
503.500000	227.300654 
504.000000	225.036549 
504.500000	222.804619 
505.000000	220.555315 
505.500000	218.275282 
506.000000	215.964706 
506.500000	213.620626 
507.000000	211.251210 
507.500000	208.879839 
508.000000	206.482876 
508.500000	204.067619 
509.000000	201.670655 
509.500000	199.266493 
510.000000	196.850369 
510.500000	194.433425 
511.000000	191.965827 
511.500000	189.440695 
512.000000	186.890560 
512.500000	184.291766 
513.000000	181.635622 
513.500000	178.937388 
514.000000	176.199039 
514.500000	173.434140 
515.000000	170.687494 
515.500000	167.949272 
516.000000	165.216883 
516.500000	162.507073 
517.000000	159.832773 
517.500000	157.173551 
518.000000	154.518227 
518.500000	151.836128 
519.000000	149.126905 
519.500000	146.410184 
520.000000	143.680879 
520.500000	140.936800 
521.000000	138.159561 
521.500000	135.376163 
522.000000	132.582935 
522.500000	129.804408 
523.000000	127.022216 
523.500000	124.267052 
524.000000	121.554986 
524.500000	118.898793 
525.000000	116.308913 
525.500000	113.768010 
526.000000	111.272064 
526.500000	108.795036 
527.000000	106.344198 
527.500000	103.900193 
528.000000	101.465942 
528.500000	99.057685  
529.000000	96.680113  
529.500000	94.347987  
530.000000	92.069636  
530.500000	89.857817  
531.000000	87.696561  
531.500000	85.584988  
532.000000	83.535273  
532.500000	81.540739  
533.000000	79.598597  
533.500000	77.701278  
534.000000	75.848773  
534.500000	74.029898  
535.000000	72.250771  
535.500000	70.491455  
536.000000	68.751918  
536.500000	67.048602  
537.000000	65.385379  
537.500000	63.774632  
538.000000	62.229787  
538.500000	60.770543  
539.000000	59.383839  
539.500000	58.070904  
540.000000	56.810041  
540.500000	55.595895  
541.000000	54.411619  
541.500000	53.239188  
542.000000	52.072188  
542.500000	50.907080  
543.000000	49.760453  
543.500000	48.627256  
544.000000	47.515044  
544.500000	46.414540  
545.000000	45.344763  
545.500000	44.304233  
546.000000	43.285387  
546.500000	42.287924  
547.000000	41.318270  
547.500000	40.383123  
548.000000	39.477173  
548.500000	38.596592  
549.000000	37.729140  
549.500000	36.885604  
550.000000	36.065357  
550.500000	35.263714  
551.000000	34.477158  
551.500000	33.713661  
552.000000	32.968804  
552.500000	32.248989  
553.000000	31.553046  
553.500000	30.872486  
554.000000	30.208030  
554.500000	29.565168  
555.000000	28.941376  
555.500000	28.329632  
556.000000	27.739677  
556.500000	27.162627  
557.000000	26.602112  
557.500000	26.052312  
558.000000	25.505828  
558.500000	24.958452  
559.000000	24.415822  
559.500000	23.876348  
560.000000	23.340803  
560.500000	22.820560  
561.000000	22.321899  
561.500000	21.848515  
562.000000	21.397541  
562.500000	20.964383  
563.000000	20.545476  
563.500000	20.141021  
564.000000	19.741370  
564.500000	19.333917  
565.000000	18.923835  
565.500000	18.515862  
566.000000	18.114330  
566.500000	17.723686  
567.000000	17.340927  
567.500000	16.967334  
568.000000	16.609247  
568.500000	16.265795  
569.000000	15.925838  
569.500000	15.593426  
570.000000	15.268820  
570.500000	14.946471  
571.000000	14.632114  
571.500000	14.322829  
572.000000	14.017504  
572.500000	13.716418  
573.000000	13.422449  
573.500000	13.129436  
574.000000	12.844631  
574.500000	12.569006  
575.000000	12.294880  
575.500000	12.024496  
576.000000	11.759629  
576.500000	11.499922  
577.000000	11.246074  
577.500000	10.998477  
578.000000	10.756947  
578.500000	10.526851  
579.000000	10.310527  
579.500000	10.104323  
580.000000	9.901173   
580.500000	9.698367   
581.000000	9.495124   
581.500000	9.291627   
582.000000	9.083289   
582.500000	8.869935   
583.000000	8.656681   
583.500000	8.449128   
584.000000	8.250591   
584.500000	8.059421   
585.000000	7.877704   
585.500000	7.707970   
586.000000	7.551896   
586.500000	7.406125   
587.000000	7.266139   
587.500000	7.130194   
588.000000	6.998378   
588.500000	6.869933   
589.000000	6.740616   
589.500000	6.609475   
590.000000	6.479707   
590.500000	6.352724   
591.000000	6.230759   
591.500000	6.112811   
592.000000	5.998107   
592.500000	5.888402   
593.000000	5.785459   
593.500000	5.686991   
594.000000	5.592481   
594.500000	5.503812   

