PE FL                   SPECTRUM    ASCII       PEDS        1.60        
  -1
DMEEDC~1.TXT
18/03/06
16:18:44.00
18/03/06
16:18:44.00


596.500000
1









LS55
350.00
11.00
3.20
SCAN
1
20
100
100
0
60
0
1
0
1
7
ON
600 350 
1 0 0
#HDR
-1
-1
#GR
NM

0.00002384185791015625
0.0
400.000000
0.500000
394
8
394.617548
3.891898
#DATA
400.000000	58.975000  
400.500000	62.929330  
401.000000	66.879552  
401.500000	70.862589  
402.000000	74.849329  
402.500000	78.872492  
403.000000	83.012386  
403.500000	87.319634  
404.000000	91.817959  
404.500000	96.599723  
405.000000	101.588493 
405.500000	106.800343 
406.000000	112.233595 
406.500000	117.866651 
407.000000	123.576796 
407.500000	129.331099 
408.000000	135.015587 
408.500000	140.629359 
409.000000	146.253974 
409.500000	152.093916 
410.000000	158.209576 
410.500000	164.674174 
411.000000	171.394486 
411.500000	178.285842 
412.000000	185.172054 
412.500000	191.987615 
413.000000	198.674435 
413.500000	205.232306 
414.000000	211.620174 
414.500000	217.953054 
415.000000	224.262401 
415.500000	230.528708 
416.000000	236.724768 
416.500000	242.824085 
417.000000	248.796666 
417.500000	254.737656 
418.000000	260.724980 
418.500000	266.838672 
419.000000	273.119393 
419.500000	279.387396 
420.000000	285.619867 
420.500000	291.758769 
421.000000	297.782138 
421.500000	303.631064 
422.000000	309.377642 
422.500000	314.865175 
423.000000	320.122903 
423.500000	325.114633 
424.000000	329.940832 
424.500000	334.531564 
425.000000	338.974589 
425.500000	343.245465 
426.000000	347.386718 
426.500000	351.318941 
427.000000	355.097244 
427.500000	358.676704 
428.000000	362.044531 
428.500000	365.281068 
429.000000	368.345299 
429.500000	371.300589 
430.000000	374.104065 
430.500000	376.739230 
431.000000	379.169115 
431.500000	381.522638 
432.000000	383.670227 
432.500000	385.605423 
433.000000	387.275436 
433.500000	388.622200 
434.000000	389.650779 
434.500000	390.594993 
435.000000	391.472549 
435.500000	392.310383 
436.000000	393.150578 
436.500000	393.822839 
437.000000	394.251949 
437.500000	394.508066 
438.000000	394.617548 
438.500000	394.551486 
439.000000	394.466009 
439.500000	394.360189 
440.000000	394.222612 
440.500000	394.088446 
441.000000	393.818684 
441.500000	393.195916 
442.000000	392.215894 
442.500000	390.931873 
443.000000	389.450266 
443.500000	387.949541 
444.000000	386.466570 
444.500000	384.922375 
445.000000	383.283327 
445.500000	381.543305 
446.000000	379.665495 
446.500000	377.737994 
447.000000	375.767461 
447.500000	373.739728 
448.000000	371.666737 
448.500000	369.627373 
449.000000	367.547075 
449.500000	365.434602 
450.000000	363.297112 
450.500000	361.077407 
451.000000	358.734874 
451.500000	356.351769 
452.000000	353.874115 
452.500000	351.320976 
453.000000	348.771622 
453.500000	346.307916 
454.000000	343.879065 
454.500000	341.472800 
455.000000	339.043716 
455.500000	336.542403 
456.000000	333.969301 
456.500000	331.441069 
457.000000	328.936877 
457.500000	326.462514 
458.000000	324.073105 
458.500000	321.736110 
459.000000	319.328900 
459.500000	316.895036 
460.000000	314.426882 
460.500000	311.910704 
461.000000	309.422817 
461.500000	306.998097 
462.000000	304.611093 
462.500000	302.240934 
463.000000	299.922119 
463.500000	297.632559 
464.000000	295.415182 
464.500000	293.245834 
465.000000	291.148299 
465.500000	289.034545 
466.000000	286.927135 
466.500000	284.882016 
467.000000	282.898270 
467.500000	280.956467 
468.000000	279.091184 
468.500000	277.283846 
469.000000	275.536419 
469.500000	273.848330 
470.000000	272.192474 
470.500000	270.507479 
471.000000	268.811461 
471.500000	267.135011 
472.000000	265.489252 
472.500000	263.902914 
473.000000	262.320404 
473.500000	260.704751 
474.000000	259.018178 
474.500000	257.280489 
475.000000	255.586016 
475.500000	253.969191 
476.000000	252.414172 
476.500000	250.912011 
477.000000	249.418129 
477.500000	247.886239 
478.000000	246.355709 
478.500000	244.871319 
479.000000	243.370870 
479.500000	241.893476 
480.000000	240.467478 
480.500000	239.041687 
481.000000	237.666274 
481.500000	236.354277 
482.000000	234.993202 
482.500000	233.560834 
483.000000	232.081860 
483.500000	230.543361 
484.000000	228.998131 
484.500000	227.533672 
485.000000	226.143776 
485.500000	224.806944 
486.000000	223.546171 
486.500000	222.337174 
487.000000	221.118919 
487.500000	219.827644 
488.000000	218.444488 
488.500000	216.975543 
489.000000	215.519878 
489.500000	214.153377 
490.000000	212.843185 
490.500000	211.514755 
491.000000	210.137603 
491.500000	208.683030 
492.000000	207.161125 
492.500000	205.667177 
493.000000	204.247306 
493.500000	202.871573 
494.000000	201.512712 
494.500000	200.172711 
495.000000	198.838873 
495.500000	197.501444 
496.000000	196.126873 
496.500000	194.702953 
497.000000	193.194857 
497.500000	191.645785 
498.000000	190.128735 
498.500000	188.639433 
499.000000	187.197571 
499.500000	185.789761 
500.000000	184.367133 
500.500000	182.848220 
501.000000	181.303799 
501.500000	179.757553 
502.000000	178.275449 
502.500000	176.887987 
503.000000	175.583493 
503.500000	174.285990 
504.000000	172.947393 
504.500000	171.466596 
505.000000	169.851022 
505.500000	168.147297 
506.000000	166.446874 
506.500000	164.827541 
507.000000	163.321549 
507.500000	161.888495 
508.000000	160.440262 
508.500000	158.906656 
509.000000	157.254669 
509.500000	155.518836 
510.000000	153.751051 
510.500000	152.004755 
511.000000	150.257686 
511.500000	148.455142 
512.000000	146.591912 
512.500000	144.615369 
513.000000	142.543192 
513.500000	140.477456 
514.000000	138.439714 
514.500000	136.405969 
515.000000	134.412285 
515.500000	132.401705 
516.000000	130.317794 
516.500000	128.174825 
517.000000	126.011511 
517.500000	123.822995 
518.000000	121.651450 
518.500000	119.519736 
519.000000	117.395160 
519.500000	115.243559 
520.000000	113.086076 
520.500000	110.926806 
521.000000	108.757797 
521.500000	106.607656 
522.000000	104.499319 
522.500000	102.384232 
523.000000	100.285585 
523.500000	98.191149  
524.000000	96.128242  
524.500000	94.122608  
525.000000	92.164874  
525.500000	90.177652  
526.000000	88.190177  
526.500000	86.187972  
527.000000	84.181034  
527.500000	82.226410  
528.000000	80.327202  
528.500000	78.427425  
529.000000	76.561523  
529.500000	74.738341  
530.000000	72.934903  
530.500000	71.198654  
531.000000	69.535384  
531.500000	67.915716  
532.000000	66.347803  
532.500000	64.839739  
533.000000	63.365129  
533.500000	61.931418  
534.000000	60.512087  
534.500000	59.095121  
535.000000	57.714892  
535.500000	56.358818  
536.000000	55.032842  
536.500000	53.727213  
537.000000	52.453772  
537.500000	51.188521  
538.000000	49.979735  
538.500000	48.808942  
539.000000	47.670046  
539.500000	46.569828  
540.000000	45.547966  
540.500000	44.556613  
541.000000	43.609206  
541.500000	42.685774  
542.000000	41.778404  
542.500000	40.856627  
543.000000	39.949000  
543.500000	39.029991  
544.000000	38.111615  
544.500000	37.210213  
545.000000	36.335125  
545.500000	35.499510  
546.000000	34.723354  
546.500000	33.999546  
547.000000	33.317193  
547.500000	32.658658  
548.000000	32.005913  
548.500000	31.354885  
549.000000	30.708064  
549.500000	30.061687  
550.000000	29.418324  
550.500000	28.787111  
551.000000	28.162779  
551.500000	27.549230  
552.000000	26.948460  
552.500000	26.359553  
553.000000	25.800000  
553.500000	25.261185  
554.000000	24.723524  
554.500000	24.194502  
555.000000	23.678538  
555.500000	23.165534  
556.000000	22.672347  
556.500000	22.198606  
557.000000	21.727695  
557.500000	21.266295  
558.000000	20.815874  
558.500000	20.365311  
559.000000	19.920437  
559.500000	19.489326  
560.000000	19.064739  
560.500000	18.644092  
561.000000	18.237111  
561.500000	17.851845  
562.000000	17.480751  
562.500000	17.116874  
563.000000	16.764506  
563.500000	16.395591  
564.000000	16.020941  
564.500000	15.656105  
565.000000	15.312181  
565.500000	14.990355  
566.000000	14.699104  
566.500000	14.408124  
567.000000	14.108377  
567.500000	13.790100  
568.000000	13.472016  
568.500000	13.166433  
569.000000	12.878958  
569.500000	12.610977  
570.000000	12.362601  
570.500000	12.108680  
571.000000	11.843228  
571.500000	11.575914  
572.000000	11.301870  
572.500000	11.035483  
573.000000	10.786528  
573.500000	10.549926  
574.000000	10.320164  
574.500000	10.090947  
575.000000	9.864974   
575.500000	9.644172   
576.000000	9.435128   
576.500000	9.235191   
577.000000	9.042277   
577.500000	8.838023   
578.000000	8.630033   
578.500000	8.424927   
579.000000	8.223211   
579.500000	8.027054   
580.000000	7.838545   
580.500000	7.649576   
581.000000	7.467368   
581.500000	7.299083   
582.000000	7.134987   
582.500000	6.972704   
583.000000	6.810810   
583.500000	6.649154   
584.000000	6.493231   
584.500000	6.350815   
585.000000	6.210676   
585.500000	6.076993   
586.000000	5.939793   
586.500000	5.808635   
587.000000	5.686521   
587.500000	5.577080   
588.000000	5.470979   
588.500000	5.366209   
589.000000	5.256864   
589.500000	5.149790   
590.000000	5.042018   
590.500000	4.938210   
591.000000	4.835649   
591.500000	4.731881   
592.000000	4.628821   
592.500000	4.537064   
593.000000	4.449762   
593.500000	4.363429   
594.000000	4.281447   
594.500000	4.195230   
595.000000	4.110463   
595.500000	4.035437   
596.000000	3.964884   
596.500000	3.891898   

