PE FL                   SPECTRUM    ASCII       PEDS        1.60        
  -1
MIX_DI~2.TXT
18/03/14
10:11:35.00
18/03/14
10:11:35.00


596.500000
1









LS55
350.00
11.00
3.00
SCAN
1
20
100
100
0
60
0
1
0
1
7
ON
600 350 
1 0 0
#HDR
-1
-1
#GR
NM

0.00002384185791015625
0.0
400.000000
0.500000
394
8
937.138450
2.752888
#DATA
400.000000	44.689000  
400.500000	48.838097  
401.000000	53.073185  
401.500000	57.453411  
402.000000	62.042902  
402.500000	66.886995  
403.000000	72.030465  
403.500000	77.490972  
404.000000	83.313330  
404.500000	89.509290  
405.000000	96.096938  
405.500000	103.114262 
406.000000	110.609382 
406.500000	118.572718 
407.000000	126.949377 
407.500000	135.694266 
408.000000	144.634242 
408.500000	153.749973 
409.000000	163.091488 
409.500000	172.849923 
410.000000	183.103358 
410.500000	194.031210 
411.000000	205.519404 
411.500000	217.654754 
412.000000	230.434105 
412.500000	243.980051 
413.000000	258.233124 
413.500000	273.182333 
414.000000	288.443827 
414.500000	303.945154 
415.000000	319.649334 
415.500000	335.590725 
416.000000	351.894729 
416.500000	368.635193 
417.000000	385.628051 
417.500000	402.779719 
418.000000	420.207287 
418.500000	437.846682 
419.000000	455.868013 
419.500000	474.191308 
420.000000	492.846919 
420.500000	511.608301 
421.000000	530.604269 
421.500000	549.639938 
422.000000	568.652799 
422.500000	587.289610 
423.000000	605.502859 
423.500000	623.038850 
424.000000	640.094421 
424.500000	656.728291 
425.000000	673.053195 
425.500000	688.875847 
426.000000	704.304663 
426.500000	719.198962 
427.000000	733.673789 
427.500000	747.865419 
428.000000	761.838309 
428.500000	775.358979 
429.000000	788.463454 
429.500000	801.129433 
430.000000	813.286396 
430.500000	824.915788 
431.000000	836.079666 
431.500000	846.574539 
432.000000	856.429264 
432.500000	865.817319 
433.000000	874.729147 
433.500000	883.053944 
434.000000	890.761608 
434.500000	897.784046 
435.000000	904.061093 
435.500000	909.786428 
436.000000	915.123829 
436.500000	920.023506 
437.000000	924.428080 
437.500000	928.222365 
438.000000	931.300601 
438.500000	933.696329 
439.000000	935.475333 
439.500000	936.581677 
440.000000	937.138450 
440.500000	937.041398 
441.000000	936.383386 
441.500000	935.233821 
442.000000	933.666633 
442.500000	931.508004 
443.000000	928.857799 
443.500000	925.411836 
444.000000	921.095447 
444.500000	916.019577 
445.000000	910.559737 
445.500000	904.770573 
446.000000	898.979638 
446.500000	893.122192 
447.000000	886.980400 
447.500000	880.525914 
448.000000	873.796811 
448.500000	866.758269 
449.000000	859.583087 
449.500000	852.427362 
450.000000	844.995404 
450.500000	837.365705 
451.000000	829.518945 
451.500000	821.383142 
452.000000	813.015818 
452.500000	804.614514 
453.000000	795.937788 
453.500000	787.134002 
454.000000	778.211585 
454.500000	769.184221 
455.000000	760.034154 
455.500000	750.927005 
456.000000	741.773843 
456.500000	732.641581 
457.000000	723.498874 
457.500000	714.368308 
458.000000	705.133036 
458.500000	695.746973 
459.000000	686.134741 
459.500000	676.309990 
460.000000	666.471214 
460.500000	656.764465 
461.000000	647.301550 
461.500000	638.093156 
462.000000	628.981172 
462.500000	619.819735 
463.000000	610.842034 
463.500000	602.008492 
464.000000	593.449165 
464.500000	585.192684 
465.000000	577.024976 
465.500000	568.659305 
466.000000	560.304361 
466.500000	551.941200 
467.000000	543.675803 
467.500000	535.687520 
468.000000	527.892821 
468.500000	520.153758 
469.000000	512.539262 
469.500000	505.072370 
470.000000	497.751891 
470.500000	490.552468 
471.000000	483.507822 
471.500000	476.538739 
472.000000	469.651986 
472.500000	462.754817 
473.000000	455.916532 
473.500000	449.108096 
474.000000	442.348168 
474.500000	435.595654 
475.000000	428.973315 
475.500000	422.302309 
476.000000	415.681375 
476.500000	409.143221 
477.000000	402.761613 
477.500000	396.547241 
478.000000	390.600326 
478.500000	384.734121 
479.000000	378.929280 
479.500000	373.117849 
480.000000	367.269276 
480.500000	361.402794 
481.000000	355.590839 
481.500000	349.821136 
482.000000	344.135292 
482.500000	338.517386 
483.000000	332.949025 
483.500000	327.435914 
484.000000	322.017046 
484.500000	316.688834 
485.000000	311.433732 
485.500000	306.216581 
486.000000	301.015330 
486.500000	295.915174 
487.000000	290.891179 
487.500000	286.025843 
488.000000	281.248867 
488.500000	276.463746 
489.000000	271.527465 
489.500000	266.540528 
490.000000	261.450338 
490.500000	256.416422 
491.000000	251.513270 
491.500000	246.819574 
492.000000	242.288580 
492.500000	237.988613 
493.000000	233.809878 
493.500000	229.732701 
494.000000	225.732930 
494.500000	221.852369 
495.000000	218.079129 
495.500000	214.384965 
496.000000	210.747278 
496.500000	207.046207 
497.000000	203.214076 
497.500000	199.373143 
498.000000	195.642369 
498.500000	192.039083 
499.000000	188.641419 
499.500000	185.382004 
500.000000	182.129086 
500.500000	178.885807 
501.000000	175.694061 
501.500000	172.514082 
502.000000	169.399493 
502.500000	166.351472 
503.000000	163.386304 
503.500000	160.499322 
504.000000	157.673408 
504.500000	154.823350 
505.000000	151.978933 
505.500000	149.121326 
506.000000	146.324186 
506.500000	143.646642 
507.000000	141.053868 
507.500000	138.469542 
508.000000	135.917458 
508.500000	133.340016 
509.000000	130.765304 
509.500000	128.244299 
510.000000	125.739693 
510.500000	123.232126 
511.000000	120.767277 
511.500000	118.349790 
512.000000	115.979251 
512.500000	113.667900 
513.000000	111.334940 
513.500000	108.913638 
514.000000	106.441105 
514.500000	103.981956 
515.000000	101.586810 
515.500000	99.299245  
516.000000	97.081800  
516.500000	94.880534  
517.000000	92.676380  
517.500000	90.505124  
518.000000	88.365002  
518.500000	86.294652  
519.000000	84.260186  
519.500000	82.236534  
520.000000	80.223669  
520.500000	78.236301  
521.000000	76.265195  
521.500000	74.339032  
522.000000	72.422093  
522.500000	70.499294  
523.000000	68.595456  
523.500000	66.747993  
524.000000	64.926182  
524.500000	63.148019  
525.000000	61.431301  
525.500000	59.778831  
526.000000	58.191171  
526.500000	56.698408  
527.000000	55.231150  
527.500000	53.749394  
528.000000	52.235417  
528.500000	50.711500  
529.000000	49.179009  
529.500000	47.706200  
530.000000	46.299666  
530.500000	44.970675  
531.000000	43.705210  
531.500000	42.500033  
532.000000	41.320428  
532.500000	40.170239  
533.000000	39.036693  
533.500000	37.931319  
534.000000	36.856050  
534.500000	35.816847  
535.000000	34.816704  
535.500000	33.844482  
536.000000	32.887917  
536.500000	31.957825  
537.000000	31.057984  
537.500000	30.193156  
538.000000	29.376033  
538.500000	28.588707  
539.000000	27.817587  
539.500000	27.069868  
540.000000	26.355085  
540.500000	25.680034  
541.000000	25.057919  
541.500000	24.466143  
542.000000	23.888573  
542.500000	23.304285  
543.000000	22.715414  
543.500000	22.142687  
544.000000	21.583054  
544.500000	21.033105  
545.000000	20.506665  
545.500000	19.989377  
546.000000	19.478408  
546.500000	18.999821  
547.000000	18.544592  
547.500000	18.103193  
548.000000	17.690589  
548.500000	17.292274  
549.000000	16.885414  
549.500000	16.483589  
550.000000	16.091693  
550.500000	15.706694  
551.000000	15.346225  
551.500000	15.016246  
552.000000	14.692808  
552.500000	14.360841  
553.000000	14.032546  
553.500000	13.703304  
554.000000	13.377136  
554.500000	13.078482  
555.000000	12.788735  
555.500000	12.496167  
556.000000	12.209525  
556.500000	11.934079  
557.000000	11.663888  
557.500000	11.416976  
558.000000	11.181704  
558.500000	10.947483  
559.000000	10.706039  
559.500000	10.460963  
560.000000	10.210580  
560.500000	9.967822   
561.000000	9.731040   
561.500000	9.511875   
562.000000	9.305051   
562.500000	9.107147   
563.000000	8.919146   
563.500000	8.739253   
564.000000	8.560675   
564.500000	8.389580   
565.000000	8.226347   
565.500000	8.064301   
566.000000	7.899821   
566.500000	7.732762   
567.000000	7.558000   
567.500000	7.378251   
568.000000	7.204387   
568.500000	7.037546   
569.000000	6.878553   
569.500000	6.731454   
570.000000	6.598037   
570.500000	6.477799   
571.000000	6.366595   
571.500000	6.260062   
572.000000	6.146726   
572.500000	6.024347   
573.000000	5.897906   
573.500000	5.777295   
574.000000	5.660934   
574.500000	5.553684   
575.000000	5.450384   
575.500000	5.343778   
576.000000	5.231525   
576.500000	5.122423   
577.000000	5.015711   
577.500000	4.918688   
578.000000	4.834490   
578.500000	4.754004   
579.000000	4.673637   
579.500000	4.593806   
580.000000	4.511914   
580.500000	4.427186   
581.000000	4.348474   
581.500000	4.270461   
582.000000	4.186364   
582.500000	4.100206   
583.000000	4.015267   
583.500000	3.931958   
584.000000	3.857160   
584.500000	3.796552   
585.000000	3.744358   
585.500000	3.695594   
586.000000	3.650072   
586.500000	3.600228   
587.000000	3.540661   
587.500000	3.478474   
588.000000	3.416054   
588.500000	3.359242   
589.000000	3.314047   
589.500000	3.277359   
590.000000	3.240924   
590.500000	3.199682   
591.000000	3.153129   
591.500000	3.103894   
592.000000	3.061596   
592.500000	3.021188   
593.000000	2.983425   
593.500000	2.947002   
594.000000	2.910563   
594.500000	2.874951   
595.000000	2.847146   
595.500000	2.821732   
596.000000	2.791002   
596.500000	2.752888   

