PE FL                   SPECTRUM    ASCII       PEDS        1.60        
  -1
MIAEA2~1.TXT
18/01/15
15:55:25.00
18/01/15
15:55:25.00


598.500000
1









LS55
350.00
3.00
2.50
SCAN
1
20
100
100
0
60
0
1
0
1
7
ON
600 350 
1 0 0
#HDR
-1
-1
#GR
NM

0.00002384185791015625
0.0
400.000000
0.500000
398
8
671.642000
4.333000
#DATA
400.000000	197.243000 
400.500000	201.898000 
401.000000	209.549000 
401.500000	218.676000 
402.000000	229.482000 
402.500000	236.310000 
403.000000	246.492000 
403.500000	252.989000 
404.000000	263.242000 
404.500000	272.311000 
405.000000	285.963000 
405.500000	294.936000 
406.000000	306.978000 
406.500000	319.025000 
407.000000	330.421000 
407.500000	339.268000 
408.000000	347.630000 
408.500000	360.871000 
409.000000	368.358000 
409.500000	380.671000 
410.000000	393.835000 
410.500000	404.280000 
411.000000	414.582000 
411.500000	427.852000 
412.000000	438.573000 
412.500000	442.906000 
413.000000	458.764000 
413.500000	471.866000 
414.000000	471.664000 
414.500000	487.712000 
415.000000	503.306000 
415.500000	513.011999 
416.000000	517.851000 
416.500000	531.431000 
417.000000	544.985000 
417.500000	548.875000 
418.000000	558.667000 
418.500000	566.474000 
419.000000	569.304999 
419.500000	582.054000 
420.000000	591.219000 
420.500000	597.732999 
421.000000	604.611000 
421.500000	611.474000 
422.000000	612.973000 
422.500000	621.587000 
423.000000	627.396000 
423.500000	629.283000 
424.000000	633.927000 
424.500000	643.748000 
425.000000	644.724000 
425.500000	645.561000 
426.000000	644.681000 
426.500000	657.446000 
427.000000	657.429999 
427.500000	661.011000 
428.000000	663.707000 
428.500000	663.978000 
429.000000	659.528000 
429.500000	662.719000 
430.000000	665.236000 
430.500000	669.040000 
431.000000	667.427000 
431.500000	668.602000 
432.000000	669.058000 
432.500000	668.910999 
433.000000	667.999000 
433.500000	671.149000 
434.000000	666.968000 
434.500000	667.737000 
435.000000	669.763000 
435.500000	668.917000 
436.000000	671.642000 
436.500000	668.761000 
437.000000	665.879000 
437.500000	663.030999 
438.000000	669.214000 
438.500000	664.232999 
439.000000	658.499000 
439.500000	658.028000 
440.000000	653.691000 
440.500000	655.684000 
441.000000	649.920000 
441.500000	647.761999 
442.000000	644.427000 
442.500000	642.614000 
443.000000	638.016000 
443.500000	635.254000 
444.000000	630.604000 
444.500000	626.354000 
445.000000	623.143000 
445.500000	617.603000 
446.000000	610.303000 
446.500000	603.658000 
447.000000	601.039000 
447.500000	594.253000 
448.000000	587.461000 
448.500000	588.319000 
449.000000	576.761999 
449.500000	578.618000 
450.000000	572.083000 
450.500000	569.726000 
451.000000	561.808000 
451.500000	559.339000 
452.000000	549.993000 
452.500000	542.308000 
453.000000	539.412000 
453.500000	534.631999 
454.000000	530.838000 
454.500000	525.028000 
455.000000	517.144000 
455.500000	514.325000 
456.000000	506.162000 
456.500000	499.653000 
457.000000	497.598000 
457.500000	490.827000 
458.000000	491.045000 
458.500000	483.696000 
459.000000	473.345000 
459.500000	468.127000 
460.000000	463.151000 
460.500000	455.710000 
461.000000	453.482000 
461.500000	445.645000 
462.000000	440.437000 
462.500000	439.366000 
463.000000	435.901000 
463.500000	428.222000 
464.000000	423.255000 
464.500000	422.434000 
465.000000	414.113000 
465.500000	409.661000 
466.000000	402.939000 
466.500000	397.990000 
467.000000	394.489000 
467.500000	392.009000 
468.000000	387.204000 
468.500000	385.438000 
469.000000	380.097000 
469.500000	375.043000 
470.000000	375.201000 
470.500000	369.024000 
471.000000	365.148000 
471.500000	358.312000 
472.000000	354.504000 
472.500000	353.855000 
473.000000	347.256000 
473.500000	346.449000 
474.000000	346.309000 
474.500000	339.448000 
475.000000	335.503000 
475.500000	333.625000 
476.000000	332.261000 
476.500000	327.467000 
477.000000	326.153000 
477.500000	321.574000 
478.000000	316.180000 
478.500000	316.949000 
479.000000	312.000000 
479.500000	308.741000 
480.000000	306.608000 
480.500000	302.419000 
481.000000	302.776000 
481.500000	299.330000 
482.000000	297.401000 
482.500000	293.657000 
483.000000	286.816000 
483.500000	284.717000 
484.000000	284.984000 
484.500000	282.887000 
485.000000	279.358000 
485.500000	276.703000 
486.000000	272.269000 
486.500000	273.897000 
487.000000	269.259000 
487.500000	266.995000 
488.000000	264.525000 
488.500000	261.467000 
489.000000	258.091000 
489.500000	257.741000 
490.000000	255.899000 
490.500000	254.247000 
491.000000	248.931000 
491.500000	245.690000 
492.000000	243.981000 
492.500000	242.302000 
493.000000	238.450000 
493.500000	236.806000 
494.000000	234.807000 
494.500000	232.296000 
495.000000	227.637000 
495.500000	228.884000 
496.000000	226.941000 
496.500000	223.595000 
497.000000	221.478000 
497.500000	217.655000 
498.000000	215.385000 
498.500000	211.777000 
499.000000	212.042000 
499.500000	209.484000 
500.000000	208.071000 
500.500000	205.626000 
501.000000	204.481000 
501.500000	201.844000 
502.000000	200.421000 
502.500000	200.014000 
503.000000	194.650000 
503.500000	193.791000 
504.000000	188.955000 
504.500000	188.318000 
505.000000	185.581000 
505.500000	181.061000 
506.000000	182.296000 
506.500000	180.539000 
507.000000	178.558000 
507.500000	177.009000 
508.000000	176.649000 
508.500000	173.699000 
509.000000	169.457000 
509.500000	167.824000 
510.000000	166.668000 
510.500000	162.085000 
511.000000	161.682000 
511.500000	160.101000 
512.000000	155.741000 
512.500000	155.784000 
513.000000	153.847000 
513.500000	148.975000 
514.000000	146.138000 
514.500000	143.115000 
515.000000	142.281000 
515.500000	140.371000 
516.000000	138.962000 
516.500000	133.368000 
517.000000	132.773000 
517.500000	131.169000 
518.000000	130.997000 
518.500000	126.655000 
519.000000	124.125000 
519.500000	124.293000 
520.000000	119.741000 
520.500000	118.188000 
521.000000	114.617000 
521.500000	113.694000 
522.000000	111.394000 
522.500000	107.127000 
523.000000	106.403000 
523.500000	103.204000 
524.000000	102.196000 
524.500000	97.494000  
525.000000	95.925000  
525.500000	96.048000  
526.000000	93.325000  
526.500000	90.101000  
527.000000	89.447999  
527.500000	86.846000  
528.000000	85.215999  
528.500000	82.034000  
529.000000	80.229000  
529.500000	79.142000  
530.000000	77.029000  
530.500000	74.247000  
531.000000	72.782000  
531.500000	72.551000  
532.000000	69.224999  
532.500000	67.385000  
533.000000	65.908000  
533.500000	62.248000  
534.000000	62.171000  
534.500000	61.362000  
535.000000	60.109000  
535.500000	58.110000  
536.000000	55.914000  
536.500000	55.376000  
537.000000	54.236000  
537.500000	53.172000  
538.000000	50.831000  
538.500000	49.845000  
539.000000	49.169000  
539.500000	48.656000  
540.000000	45.494000  
540.500000	45.907000  
541.000000	43.507000  
541.500000	43.868000  
542.000000	42.470000  
542.500000	42.710000  
543.000000	41.971000  
543.500000	41.283000  
544.000000	40.156000  
544.500000	38.694000  
545.000000	36.435000  
545.500000	36.492000  
546.000000	35.829000  
546.500000	33.143000  
547.000000	32.431000  
547.500000	33.411000  
548.000000	33.655000  
548.500000	32.524000  
549.000000	31.808000  
549.500000	30.712000  
550.000000	30.714000  
550.500000	29.906000  
551.000000	28.538000  
551.500000	28.410000  
552.000000	27.951000  
552.500000	27.311000  
553.000000	26.128000  
553.500000	25.751000  
554.000000	26.213000  
554.500000	25.275000  
555.000000	23.802000  
555.500000	24.736000  
556.000000	24.006000  
556.500000	22.712000  
557.000000	22.787000  
557.500000	22.183000  
558.000000	21.801000  
558.500000	21.657000  
559.000000	20.547000  
559.500000	20.000000  
560.000000	18.677000  
560.500000	18.964000  
561.000000	18.959000  
561.500000	19.346000  
562.000000	17.913000  
562.500000	17.887000  
563.000000	17.961000  
563.500000	16.522000  
564.000000	16.042000  
564.500000	16.273000  
565.000000	15.694000  
565.500000	15.275000  
566.000000	15.189000  
566.500000	15.245000  
567.000000	14.958000  
567.500000	13.659000  
568.000000	13.979000  
568.500000	13.346000  
569.000000	12.962000  
569.500000	13.051000  
570.000000	13.327000  
570.500000	12.702000  
571.000000	12.282000  
571.500000	12.498000  
572.000000	11.839000  
572.500000	12.156000  
573.000000	11.265000  
573.500000	11.527000  
574.000000	11.243000  
574.500000	10.564000  
575.000000	10.169000  
575.500000	10.192000  
576.000000	9.848000   
576.500000	9.555999   
577.000000	9.320000   
577.500000	9.069000   
578.000000	9.271000   
578.500000	9.645000   
579.000000	9.266000   
579.500000	9.805999   
580.000000	8.210000   
580.500000	8.289000   
581.000000	8.198000   
581.500000	8.215999   
582.000000	7.957000   
582.500000	7.919000   
583.000000	7.695000   
583.500000	7.392000   
584.000000	7.258000   
584.500000	7.584000   
585.000000	7.052000   
585.500000	6.951000   
586.000000	6.536000   
586.500000	6.295000   
587.000000	6.541000   
587.500000	5.969000   
588.000000	6.636000   
588.500000	6.043000   
589.000000	6.212000   
589.500000	6.056000   
590.000000	5.695000   
590.500000	5.351000   
591.000000	5.487000   
591.500000	5.235000   
592.000000	5.378000   
592.500000	5.359000   
593.000000	5.212000   
593.500000	5.010000   
594.000000	5.382000   
594.500000	5.524000   
595.000000	5.353000   
595.500000	5.067000   
596.000000	4.641000   
596.500000	4.936000   
597.000000	4.746000   
597.500000	4.759000   
598.000000	4.660000   
598.500000	4.333000   

