PE FL                   SPECTRUM    ASCII       PEDS        1.60        
  -1
MI9AA2~1.TXT
18/03/14
11:53:54.00
18/03/14
11:53:54.00


596.500000
1









LS55
350.00
11.00
3.00
SCAN
1
20
100
100
0
60
0
1
0
1
7
ON
600 350 
1 0 0
#HDR
-1
-1
#GR
NM

0.00002384185791015625
0.0
400.000000
0.500000
394
8
490.632425
5.156401
#DATA
400.000000	43.637000  
400.500000	47.245333  
401.000000	50.833041  
401.500000	54.461514  
402.000000	58.168311  
402.500000	62.012619  
403.000000	66.086562  
403.500000	70.462172  
404.000000	75.062564  
404.500000	79.886305  
405.000000	84.901746  
405.500000	90.076721  
406.000000	95.400794  
406.500000	100.937997 
407.000000	106.660366 
407.500000	112.610666 
408.000000	118.755083 
408.500000	125.107613 
409.000000	131.673398 
409.500000	138.531366 
410.000000	145.701594 
410.500000	153.160453 
411.000000	160.797885 
411.500000	168.580115 
412.000000	176.471359 
412.500000	184.470976 
413.000000	192.614184 
413.500000	200.910757 
414.000000	209.213326 
414.500000	217.469315 
415.000000	225.612165 
415.500000	233.618483 
416.000000	241.572358 
416.500000	249.507124 
417.000000	257.381319 
417.500000	265.221050 
418.000000	273.092521 
418.500000	281.011368 
419.000000	289.086679 
419.500000	297.300110 
420.000000	305.603523 
420.500000	313.993967 
421.000000	322.481852 
421.500000	330.833953 
422.000000	339.078549 
422.500000	347.091232 
423.000000	354.795175 
423.500000	362.204210 
424.000000	369.513450 
424.500000	376.521239 
425.000000	383.262110 
425.500000	389.620686 
426.000000	395.552464 
426.500000	401.088124 
427.000000	406.518357 
427.500000	411.896620 
428.000000	417.268315 
428.500000	422.506043 
429.000000	427.501525 
429.500000	432.185810 
430.000000	436.536557 
430.500000	440.604910 
431.000000	444.531467 
431.500000	448.301062 
432.000000	451.959641 
432.500000	455.633732 
433.000000	459.253020 
433.500000	462.820418 
434.000000	466.300493 
434.500000	469.598203 
435.000000	472.584729 
435.500000	475.285850 
436.000000	477.689806 
436.500000	479.731775 
437.000000	481.461873 
437.500000	482.963976 
438.000000	484.280415 
438.500000	485.373634 
439.000000	486.325577 
439.500000	487.174769 
440.000000	487.867175 
440.500000	488.504150 
441.000000	489.150981 
441.500000	489.708513 
442.000000	490.167025 
442.500000	490.535463 
443.000000	490.632425 
443.500000	490.433369 
444.000000	490.033054 
444.500000	489.348200 
445.000000	488.372675 
445.500000	487.309970 
446.000000	486.238520 
446.500000	485.170550 
447.000000	484.228345 
447.500000	483.335298 
448.000000	482.336094 
448.500000	481.156690 
449.000000	479.784196 
449.500000	478.026306 
450.000000	475.972386 
450.500000	473.710044 
451.000000	471.285845 
451.500000	468.717284 
452.000000	466.193794 
452.500000	463.794415 
453.000000	461.519295 
453.500000	459.348733 
454.000000	457.249165 
454.500000	455.058354 
455.000000	452.711468 
455.500000	450.271446 
456.000000	447.822372 
456.500000	445.276507 
457.000000	442.742330 
457.500000	440.199432 
458.000000	437.576630 
458.500000	434.902552 
459.000000	432.383666 
459.500000	429.910066 
460.000000	427.467011 
460.500000	425.004066 
461.000000	422.497790 
461.500000	419.889271 
462.000000	417.338489 
462.500000	414.854308 
463.000000	412.465228 
463.500000	410.176507 
464.000000	407.987867 
464.500000	405.882736 
465.000000	403.928259 
465.500000	402.074781 
466.000000	400.277210 
466.500000	398.509506 
467.000000	396.680348 
467.500000	394.820027 
468.000000	393.054128 
468.500000	391.386878 
469.000000	389.831018 
469.500000	388.454585 
470.000000	387.141606 
470.500000	385.822316 
471.000000	384.535198 
471.500000	383.293160 
472.000000	382.020423 
472.500000	380.784090 
473.000000	379.544435 
473.500000	378.289472 
474.000000	376.972733 
474.500000	375.663846 
475.000000	374.344292 
475.500000	373.082956 
476.000000	371.848779 
476.500000	370.665697 
477.000000	369.472909 
477.500000	368.252695 
478.000000	366.961316 
478.500000	365.613423 
479.000000	364.189065 
479.500000	362.760228 
480.000000	361.383415 
480.500000	360.017051 
481.000000	358.633149 
481.500000	357.209034 
482.000000	355.710695 
482.500000	354.123390 
483.000000	352.495308 
483.500000	350.862211 
484.000000	349.247815 
484.500000	347.609390 
485.000000	345.938866 
485.500000	344.242105 
486.000000	342.520665 
486.500000	340.826467 
487.000000	339.192598 
487.500000	337.585309 
488.000000	335.906627 
488.500000	334.071511 
489.000000	332.055513 
489.500000	329.903389 
490.000000	327.690191 
490.500000	325.538474 
491.000000	323.414211 
491.500000	321.313511 
492.000000	319.236285 
492.500000	317.115997 
493.000000	314.900517 
493.500000	312.699735 
494.000000	310.491016 
494.500000	308.299591 
495.000000	306.158046 
495.500000	303.985327 
496.000000	301.693640 
496.500000	299.319716 
497.000000	296.851663 
497.500000	294.411486 
498.000000	292.024612 
498.500000	289.646828 
499.000000	287.243698 
499.500000	284.796451 
500.000000	282.266248 
500.500000	279.787124 
501.000000	277.369866 
501.500000	274.991027 
502.000000	272.618179 
502.500000	270.373962 
503.000000	268.137868 
503.500000	265.899977 
504.000000	263.577214 
504.500000	261.131230 
505.000000	258.484573 
505.500000	255.821039 
506.000000	253.256564 
506.500000	250.797271 
507.000000	248.436613 
507.500000	246.142499 
508.000000	243.785984 
508.500000	241.362132 
509.000000	238.903974 
509.500000	236.413831 
510.000000	233.924344 
510.500000	231.370502 
511.000000	228.775606 
511.500000	226.068175 
512.000000	223.258630 
512.500000	220.299435 
513.000000	217.235301 
513.500000	214.023647 
514.000000	210.803458 
514.500000	207.612726 
515.000000	204.499938 
515.500000	201.462750 
516.000000	198.458191 
516.500000	195.337263 
517.000000	192.153195 
517.500000	188.916065 
518.000000	185.664202 
518.500000	182.473322 
519.000000	179.309598 
519.500000	176.054556 
520.000000	172.646306 
520.500000	169.175735 
521.000000	165.669066 
521.500000	162.242794 
522.000000	158.894797 
522.500000	155.606794 
523.000000	152.304743 
523.500000	149.041867 
524.000000	145.815849 
524.500000	142.706280 
525.000000	139.662354 
525.500000	136.651131 
526.000000	133.576234 
526.500000	130.449845 
527.000000	127.248090 
527.500000	124.092323 
528.000000	120.999627 
528.500000	118.012935 
529.000000	115.122352 
529.500000	112.327375 
530.000000	109.558747 
530.500000	106.858255 
531.000000	104.199002 
531.500000	101.612920 
532.000000	99.105118  
532.500000	96.682624  
533.000000	94.310291  
533.500000	92.004889  
534.000000	89.749642  
534.500000	87.531665  
535.000000	85.386867  
535.500000	83.272979  
536.000000	81.170034  
536.500000	79.109529  
537.000000	77.118241  
537.500000	75.184224  
538.000000	73.370860  
538.500000	71.634294  
539.000000	69.942142  
539.500000	68.297357  
540.000000	66.705223  
540.500000	65.127213  
541.000000	63.610372  
541.500000	62.128231  
542.000000	60.673290  
542.500000	59.221811  
543.000000	57.795843  
543.500000	56.384704  
544.000000	55.023223  
544.500000	53.696695  
545.000000	52.425245  
545.500000	51.199502  
546.000000	50.026695  
546.500000	48.889192  
547.000000	47.817004  
547.500000	46.789002  
548.000000	45.824884  
548.500000	44.892165  
549.000000	43.971220  
549.500000	43.024217  
550.000000	42.069209  
550.500000	41.096281  
551.000000	40.132500  
551.500000	39.197581  
552.000000	38.311326  
552.500000	37.472673  
553.000000	36.679132  
553.500000	35.919638  
554.000000	35.183004  
554.500000	34.456115  
555.000000	33.734933  
555.500000	33.031854  
556.000000	32.329322  
556.500000	31.646588  
557.000000	30.966940  
557.500000	30.288086  
558.000000	29.598489  
558.500000	28.933193  
559.000000	28.285191  
559.500000	27.657980  
560.000000	27.055831  
560.500000	26.485015  
561.000000	25.915555  
561.500000	25.362725  
562.000000	24.841642  
562.500000	24.330750  
563.000000	23.837806  
563.500000	23.360333  
564.000000	22.876057  
564.500000	22.392227  
565.000000	21.919854  
565.500000	21.440184  
566.000000	20.959683  
566.500000	20.473808  
567.000000	19.983165  
567.500000	19.508963  
568.000000	19.061578  
568.500000	18.640552  
569.000000	18.245383  
569.500000	17.852214  
570.000000	17.457613  
570.500000	17.078690  
571.000000	16.705456  
571.500000	16.351942  
572.000000	16.013253  
572.500000	15.672242  
573.000000	15.327319  
573.500000	14.978478  
574.000000	14.624566  
574.500000	14.269778  
575.000000	13.918994  
575.500000	13.580845  
576.000000	13.262976  
576.500000	12.946677  
577.000000	12.648043  
577.500000	12.362442  
578.000000	12.078237  
578.500000	11.804415  
579.000000	11.548370  
579.500000	11.280976  
580.000000	11.011422  
580.500000	10.737962  
581.000000	10.462550  
581.500000	10.196906  
582.000000	9.950304   
582.500000	9.718601   
583.000000	9.500725   
583.500000	9.282271   
584.000000	9.061107   
584.500000	8.833358   
585.000000	8.601145   
585.500000	8.381055   
586.000000	8.183712   
586.500000	8.005114   
587.000000	7.836748   
587.500000	7.669937   
588.000000	7.494563   
588.500000	7.311949   
589.000000	7.132741   
589.500000	6.966729   
590.000000	6.813447   
590.500000	6.669885   
591.000000	6.527481   
591.500000	6.380440   
592.000000	6.226965   
592.500000	6.078980   
593.000000	5.939270   
593.500000	5.809386   
594.000000	5.686642   
594.500000	5.570377   
595.000000	5.457329   
595.500000	5.351214   
596.000000	5.253666   
596.500000	5.156401   

