PE FL                   SPECTRUM    ASCII       PEDS        1.60        
  -1
MIAAA2~1.TXT
18/03/14
12:16:11.00
18/03/14
12:16:11.00


596.500000
1









LS55
350.00
11.00
3.00
SCAN
1
20
100
100
0
60
0
1
0
1
7
ON
600 350 
1 0 0
#HDR
-1
-1
#GR
NM

0.00002384185791015625
0.0
400.000000
0.500000
394
8
414.654781
5.282987
#DATA
400.000000	39.896000  
400.500000	43.259606  
401.000000	46.601916  
401.500000	49.951634  
402.000000	53.339755  
402.500000	56.805980  
403.000000	60.444741  
403.500000	64.310213  
404.000000	68.363368  
404.500000	72.593018  
405.000000	76.978774  
405.500000	81.481313  
406.000000	86.081066  
406.500000	90.796859  
407.000000	95.612560  
407.500000	100.559754 
408.000000	105.617845 
408.500000	110.779588 
409.000000	116.070723 
409.500000	121.598697 
410.000000	127.402447 
410.500000	133.476792 
411.000000	139.719873 
411.500000	146.039847 
412.000000	152.366418 
412.500000	158.764188 
413.000000	165.304509 
413.500000	172.053633 
414.000000	179.001801 
414.500000	185.985239 
415.000000	192.872408 
415.500000	199.611439 
416.000000	206.267725 
416.500000	212.924661 
417.000000	219.779769 
417.500000	226.770709 
418.000000	233.871437 
418.500000	241.023635 
419.000000	248.148640 
419.500000	255.091225 
420.000000	261.954425 
420.500000	268.646273 
421.000000	275.154514 
421.500000	281.507018 
422.000000	287.729828 
422.500000	293.707748 
423.000000	299.511472 
423.500000	305.096426 
424.000000	310.438642 
424.500000	315.633956 
425.000000	320.729735 
425.500000	325.635543 
426.000000	330.378288 
426.500000	334.968642 
427.000000	339.312564 
427.500000	343.438475 
428.000000	347.450969 
428.500000	351.345075 
429.000000	355.111110 
429.500000	358.880705 
430.000000	362.621234 
430.500000	366.277635 
431.000000	369.800410 
431.500000	373.185930 
432.000000	376.323728 
432.500000	379.331822 
433.000000	382.284704 
433.500000	385.295496 
434.000000	388.211221 
434.500000	390.950110 
435.000000	393.482306 
435.500000	395.696562 
436.000000	397.645172 
436.500000	399.538516 
437.000000	401.440217 
437.500000	403.248358 
438.000000	405.058587 
438.500000	406.718828 
439.000000	408.195454 
439.500000	409.461599 
440.000000	410.532769 
440.500000	411.320131 
441.000000	411.946991 
441.500000	412.470723 
442.000000	413.021082 
442.500000	413.602153 
443.000000	414.139772 
443.500000	414.526677 
444.000000	414.654781 
444.500000	414.540813 
445.000000	414.230786 
445.500000	413.875781 
446.000000	413.541873 
446.500000	413.219691 
447.000000	412.819767 
447.500000	412.292043 
448.000000	411.524337 
448.500000	410.536949 
449.000000	409.389266 
449.500000	408.225529 
450.000000	407.139055 
450.500000	406.233281 
451.000000	405.390571 
451.500000	404.601087 
452.000000	403.750528 
452.500000	402.850617 
453.000000	401.801832 
453.500000	400.686426 
454.000000	399.369338 
454.500000	397.899048 
455.000000	396.328931 
455.500000	394.772107 
456.000000	393.272370 
456.500000	391.896847 
457.000000	390.554794 
457.500000	389.106846 
458.000000	387.514249 
458.500000	385.745467 
459.000000	383.950868 
459.500000	382.184719 
460.000000	380.571569 
460.500000	379.138474 
461.000000	377.875750 
461.500000	376.600758 
462.000000	375.353461 
462.500000	373.959471 
463.000000	372.486735 
463.500000	370.977412 
464.000000	369.590641 
464.500000	368.353375 
465.000000	367.379493 
465.500000	366.470675 
466.000000	365.617377 
466.500000	364.696446 
467.000000	363.755769 
467.500000	362.855933 
468.000000	362.077139 
468.500000	361.356765 
469.000000	360.727284 
469.500000	360.036649 
470.000000	359.330436 
470.500000	358.690722 
471.000000	358.086991 
471.500000	357.578380 
472.000000	357.219037 
472.500000	356.863184 
473.000000	356.507029 
473.500000	356.250680 
474.000000	355.857570 
474.500000	355.334581 
475.000000	354.754216 
475.500000	354.053774 
476.000000	353.276903 
476.500000	352.548834 
477.000000	351.787781 
477.500000	351.058794 
478.000000	350.383921 
478.500000	349.722025 
479.000000	349.009965 
479.500000	348.228270 
480.000000	347.359894 
480.500000	346.422376 
481.000000	345.421935 
481.500000	344.438566 
482.000000	343.487329 
482.500000	342.488061 
483.000000	341.445663 
483.500000	340.374174 
484.000000	339.257605 
484.500000	338.173755 
485.000000	337.056511 
485.500000	335.868104 
486.000000	334.623933 
486.500000	333.356016 
487.000000	332.038694 
487.500000	330.763801 
488.000000	329.385273 
488.500000	327.915891 
489.000000	326.361259 
489.500000	324.743592 
490.000000	323.066797 
490.500000	321.438969 
491.000000	319.800009 
491.500000	318.102582 
492.000000	316.352472 
492.500000	314.563471 
493.000000	312.715444 
493.500000	310.853595 
494.000000	308.971437 
494.500000	307.053970 
495.000000	305.165429 
495.500000	303.266131 
496.000000	301.331022 
496.500000	299.358292 
497.000000	297.309906 
497.500000	295.130743 
498.000000	292.943345 
498.500000	290.764108 
499.000000	288.586071 
499.500000	286.444366 
500.000000	284.347732 
500.500000	282.223492 
501.000000	280.091743 
501.500000	277.935390 
502.000000	275.817493 
502.500000	273.687574 
503.000000	271.553436 
503.500000	269.395755 
504.000000	267.185827 
504.500000	264.894312 
505.000000	262.607251 
505.500000	260.226955 
506.000000	257.844940 
506.500000	255.466846 
507.000000	253.075368 
507.500000	250.653423 
508.000000	248.261027 
508.500000	245.782536 
509.000000	243.337023 
509.500000	240.951280 
510.000000	238.600108 
510.500000	236.237993 
511.000000	233.833987 
511.500000	231.261179 
512.000000	228.572234 
512.500000	225.787237 
513.000000	222.943638 
513.500000	220.015953 
514.000000	216.978970 
514.500000	213.841111 
515.000000	210.676476 
515.500000	207.515150 
516.000000	204.378524 
516.500000	201.247089 
517.000000	198.083548 
517.500000	194.871927 
518.000000	191.636334 
518.500000	188.415269 
519.000000	185.175811 
519.500000	181.889107 
520.000000	178.497535 
520.500000	175.035585 
521.000000	171.508429 
521.500000	168.007235 
522.000000	164.518429 
522.500000	161.127146 
523.000000	157.799280 
523.500000	154.565981 
524.000000	151.363804 
524.500000	148.164574 
525.000000	144.920834 
525.500000	141.697020 
526.000000	138.479161 
526.500000	135.342739 
527.000000	132.258168 
527.500000	129.173468 
528.000000	126.062976 
528.500000	122.923917 
529.000000	119.782086 
529.500000	116.763407 
530.000000	113.891683 
530.500000	111.144499 
531.000000	108.504048 
531.500000	105.919164 
532.000000	103.330284 
532.500000	100.789591 
533.000000	98.311652  
533.500000	95.885534  
534.000000	93.551655  
534.500000	91.312428  
535.000000	89.086781  
535.500000	86.875506  
536.000000	84.688970  
536.500000	82.496079  
537.000000	80.332977  
537.500000	78.301467  
538.000000	76.384824  
538.500000	74.572967  
539.000000	72.857258  
539.500000	71.191860  
540.000000	69.540232  
540.500000	67.932577  
541.000000	66.353136  
541.500000	64.799043  
542.000000	63.266082  
542.500000	61.781682  
543.000000	60.349843  
543.500000	58.978284  
544.000000	57.635983  
544.500000	56.306711  
545.000000	54.969947  
545.500000	53.639302  
546.000000	52.344436  
546.500000	51.117928  
547.000000	49.960188  
547.500000	48.877760  
548.000000	47.858595  
548.500000	46.876820  
549.000000	45.918906  
549.500000	44.982633  
550.000000	44.037496  
550.500000	43.094013  
551.000000	42.139969  
551.500000	41.175364  
552.000000	40.220432  
552.500000	39.299907  
553.000000	38.418673  
553.500000	37.598856  
554.000000	36.818483  
554.500000	36.049138  
555.000000	35.280518  
555.500000	34.525311  
556.000000	33.787170  
556.500000	33.093267  
557.000000	32.426103  
557.500000	31.762244  
558.000000	31.086041  
558.500000	30.391951  
559.000000	29.686656  
559.500000	29.002868  
560.000000	28.352748  
560.500000	27.737635  
561.000000	27.149193  
561.500000	26.577860  
562.000000	26.004217  
562.500000	25.442529  
563.000000	24.915587  
563.500000	24.418746  
564.000000	23.938722  
564.500000	23.466156  
565.000000	22.974344  
565.500000	22.458775  
566.000000	21.941040  
566.500000	21.434945  
567.000000	20.938609  
567.500000	20.463468  
568.000000	20.011610  
568.500000	19.575348  
569.000000	19.156676  
569.500000	18.749829  
570.000000	18.342980  
570.500000	17.928821  
571.000000	17.518281  
571.500000	17.118251  
572.000000	16.737139  
572.500000	16.372921  
573.000000	16.022485  
573.500000	15.661559  
574.000000	15.300481  
574.500000	14.929863  
575.000000	14.564418  
575.500000	14.201171  
576.000000	13.858103  
576.500000	13.524203  
577.000000	13.211850  
577.500000	12.910966  
578.000000	12.625242  
578.500000	12.347249  
579.000000	12.085907  
579.500000	11.826253  
580.000000	11.555993  
580.500000	11.268358  
581.000000	10.973361  
581.500000	10.677655  
582.000000	10.395986  
582.500000	10.134478  
583.000000	9.884921   
583.500000	9.640687   
584.000000	9.404199   
584.500000	9.179345   
585.000000	8.963290   
585.500000	8.754521   
586.000000	8.549794   
586.500000	8.343980   
587.000000	8.141755   
587.500000	7.956988   
588.000000	7.790919   
588.500000	7.624716   
589.000000	7.454234   
589.500000	7.275976   
590.000000	7.086714   
590.500000	6.902635   
591.000000	6.737860   
591.500000	6.583313   
592.000000	6.441013   
592.500000	6.308907   
593.000000	6.173981   
593.500000	6.037931   
594.000000	5.907405   
594.500000	5.773963   
595.000000	5.645252   
595.500000	5.524887   
596.000000	5.401880   
596.500000	5.282987   

