PE FL                   SPECTRUM    ASCII       PEDS        1.60        
  -1
MIAAA2~2.TXT
18/03/15
11:25:30.00
18/03/15
11:25:30.00


595.500000
1









LS55
350.00
11.00
3.70
SCAN
1
20
100
100
0
60
0
1
0
1
7
ON
600 350 
1 0 0
#HDR
-1
-1
#GR
NM

0.00002384185791015625
0.0
400.000000
0.500000
392
8
724.718243
5.281417
#DATA
400.000000	94.203999  
400.500000	102.044337 
401.000000	109.788278 
401.500000	117.501747 
402.000000	125.264736 
402.500000	133.043235 
403.000000	140.957968 
403.500000	149.135604 
404.000000	157.667647 
404.500000	166.482168 
405.000000	175.583285 
405.500000	185.001141 
406.000000	194.709957 
406.500000	204.674083 
407.000000	214.807473 
407.500000	225.160966 
408.000000	235.721946 
408.500000	246.441996 
409.000000	257.379447 
409.500000	268.597038 
410.000000	280.088248 
410.500000	291.787317 
411.000000	303.759500 
411.500000	315.975654 
412.000000	328.333217 
412.500000	340.832024 
413.000000	353.578987 
413.500000	366.491794 
414.000000	379.488909 
414.500000	392.559265 
415.000000	405.658688 
415.500000	418.759003 
416.000000	431.784500 
416.500000	444.884291 
417.000000	458.046244 
417.500000	471.178116 
418.000000	484.148647 
418.500000	496.870836 
419.000000	509.262545 
419.500000	521.296651 
420.000000	533.104871 
420.500000	544.906912 
421.000000	556.726695 
421.500000	568.403467 
422.000000	579.868584 
422.500000	590.882706 
423.000000	601.283695 
423.500000	610.887833 
424.000000	619.799500 
424.500000	628.090628 
425.000000	635.748372 
425.500000	643.051345 
426.000000	650.141237 
426.500000	657.215870 
427.000000	664.211155 
427.500000	671.124213 
428.000000	677.881415 
428.500000	684.245094 
429.000000	690.112749 
429.500000	695.365823 
430.000000	700.116907 
430.500000	704.512688 
431.000000	708.470560 
431.500000	711.997656 
432.000000	714.997324 
432.500000	717.590493 
433.000000	719.614962 
433.500000	721.148987 
434.000000	722.388966 
434.500000	723.322905 
435.000000	724.003098 
435.500000	724.374879 
436.000000	724.665484 
436.500000	724.718243 
437.000000	724.538421 
437.500000	724.122914 
438.000000	723.404755 
438.500000	722.384502 
439.000000	720.905211 
439.500000	719.044877 
440.000000	716.750942 
440.500000	714.209664 
441.000000	711.427254 
441.500000	708.448847 
442.000000	705.285653 
442.500000	701.978738 
443.000000	698.504560 
443.500000	694.779471 
444.000000	690.845274 
444.500000	686.718471 
445.000000	682.383619 
445.500000	677.859968 
446.000000	673.254717 
446.500000	668.506955 
447.000000	663.715350 
447.500000	658.817274 
448.000000	653.876593 
448.500000	648.794630 
449.000000	643.603452 
449.500000	638.331339 
450.000000	632.887142 
450.500000	627.310385 
451.000000	621.557675 
451.500000	615.729484 
452.000000	609.707027 
452.500000	603.636519 
453.000000	597.605319 
453.500000	591.591784 
454.000000	585.662263 
454.500000	579.785437 
455.000000	574.002380 
455.500000	568.172089 
456.000000	562.327916 
456.500000	556.528233 
457.000000	550.764868 
457.500000	545.076807 
458.000000	539.359124 
458.500000	533.580547 
459.000000	527.629437 
459.500000	521.530916 
460.000000	515.419480 
460.500000	509.286792 
461.000000	503.337630 
461.500000	497.606038 
462.000000	492.126326 
462.500000	486.812658 
463.000000	481.607217 
463.500000	476.563382 
464.000000	471.626345 
464.500000	466.828192 
465.000000	462.107204 
465.500000	457.492491 
466.000000	452.982612 
466.500000	448.497495 
467.000000	444.078029 
467.500000	439.782588 
468.000000	435.619330 
468.500000	431.519293 
469.000000	427.501393 
469.500000	423.641146 
470.000000	419.905330 
470.500000	416.250907 
471.000000	412.715315 
471.500000	409.327105 
472.000000	406.019146 
472.500000	402.713313 
473.000000	399.404975 
473.500000	396.088998 
474.000000	392.790948 
474.500000	389.496766 
475.000000	386.199317 
475.500000	382.987664 
476.000000	379.805109 
476.500000	376.671059 
477.000000	373.564512 
477.500000	370.580024 
478.000000	367.698033 
478.500000	364.861038 
479.000000	362.116499 
479.500000	359.431239 
480.000000	356.767836 
480.500000	354.093046 
481.000000	351.433955 
481.500000	348.785860 
482.000000	346.091328 
482.500000	343.332569 
483.000000	340.608979 
483.500000	337.891946 
484.000000	335.224857 
484.500000	332.650948 
485.000000	330.137487 
485.500000	327.642673 
486.000000	325.083844 
486.500000	322.539571 
487.000000	319.942875 
487.500000	317.319389 
488.000000	314.751218 
488.500000	312.241614 
489.000000	309.733068 
489.500000	307.165907 
490.000000	304.547009 
490.500000	301.875415 
491.000000	299.120987 
491.500000	296.375851 
492.000000	293.697298 
492.500000	291.068400 
493.000000	288.483306 
493.500000	285.950749 
494.000000	283.479905 
494.500000	281.014634 
495.000000	278.542897 
495.500000	276.046842 
496.000000	273.528784 
496.500000	270.940703 
497.000000	268.252124 
497.500000	265.532987 
498.000000	262.833330 
498.500000	260.174597 
499.000000	257.582543 
499.500000	255.087491 
500.000000	252.652649 
500.500000	250.218920 
501.000000	247.794873 
501.500000	245.400122 
502.000000	243.011358 
502.500000	240.650139 
503.000000	238.327211 
503.500000	236.054951 
504.000000	233.780838 
504.500000	231.513968 
505.000000	229.264074 
505.500000	226.971352 
506.000000	224.649257 
506.500000	222.328987 
507.000000	219.988673 
507.500000	217.638615 
508.000000	215.319515 
508.500000	213.048938 
509.000000	210.804378 
509.500000	208.569547 
510.000000	206.351552 
510.500000	204.070142 
511.000000	201.661881 
511.500000	199.146161 
512.000000	196.561959 
512.500000	193.909801 
513.000000	191.221137 
513.500000	188.560749 
514.000000	185.939005 
514.500000	183.285951 
515.000000	180.574397 
515.500000	177.810701 
516.000000	174.957962 
516.500000	172.032877 
517.000000	169.066788 
517.500000	166.140988 
518.000000	163.246556 
518.500000	160.360810 
519.000000	157.494213 
519.500000	154.614912 
520.000000	151.700129 
520.500000	148.728890 
521.000000	145.728248 
521.500000	142.730332 
522.000000	139.758348 
522.500000	136.817816 
523.000000	133.928582 
523.500000	131.078896 
524.000000	128.238558 
524.500000	125.406252 
525.000000	122.568625 
525.500000	119.751432 
526.000000	116.973513 
526.500000	114.228955 
527.000000	111.555465 
527.500000	108.941560 
528.000000	106.377155 
528.500000	103.844092 
529.000000	101.349172 
529.500000	98.917053  
530.000000	96.535055  
530.500000	94.248027  
531.000000	92.036666  
531.500000	89.886400  
532.000000	87.778096  
532.500000	85.693389  
533.000000	83.631797  
533.500000	81.556346  
534.000000	79.519504  
534.500000	77.526894  
535.000000	75.563758  
535.500000	73.655769  
536.000000	71.830480  
536.500000	70.079014  
537.000000	68.379487  
537.500000	66.756929  
538.000000	65.195688  
538.500000	63.673448  
539.000000	62.181738  
539.500000	60.734723  
540.000000	59.325233  
540.500000	57.962784  
541.000000	56.641827  
541.500000	55.348977  
542.000000	54.085452  
542.500000	52.836756  
543.000000	51.604981  
543.500000	50.388294  
544.000000	49.207825  
544.500000	48.065884  
545.000000	46.936319  
545.500000	45.836745  
546.000000	44.773717  
546.500000	43.755181  
547.000000	42.785413  
547.500000	41.864769  
548.000000	41.004228  
548.500000	40.178454  
549.000000	39.360044  
549.500000	38.543256  
550.000000	37.721732  
550.500000	36.908797  
551.000000	36.106894  
551.500000	35.332990  
552.000000	34.602395  
552.500000	33.897901  
553.000000	33.205029  
553.500000	32.517374  
554.000000	31.837929  
554.500000	31.164213  
555.000000	30.491727  
555.500000	29.832701  
556.000000	29.197515  
556.500000	28.584484  
557.000000	27.984666  
557.500000	27.396372  
558.000000	26.827979  
558.500000	26.270504  
559.000000	25.717181  
559.500000	25.168729  
560.000000	24.642146  
560.500000	24.132528  
561.000000	23.635586  
561.500000	23.157025  
562.000000	22.697679  
562.500000	22.250289  
563.000000	21.802424  
563.500000	21.366621  
564.000000	20.946606  
564.500000	20.526638  
565.000000	20.101467  
565.500000	19.669697  
566.000000	19.231322  
566.500000	18.789050  
567.000000	18.354693  
567.500000	17.942324  
568.000000	17.552170  
568.500000	17.173747  
569.000000	16.803179  
569.500000	16.439788  
570.000000	16.088025  
570.500000	15.747892  
571.000000	15.425426  
571.500000	15.123198  
572.000000	14.825935  
572.500000	14.520129  
573.000000	14.206259  
573.500000	13.885935  
574.000000	13.563565  
574.500000	13.243784  
575.000000	12.935977  
575.500000	12.634649  
576.000000	12.341087  
576.500000	12.060443  
577.000000	11.795192  
577.500000	11.540237  
578.000000	11.299365  
578.500000	11.068322  
579.000000	10.833371  
579.500000	10.597961  
580.000000	10.361576  
580.500000	10.126400  
581.000000	9.887871   
581.500000	9.658588   
582.000000	9.439903   
582.500000	9.218480   
583.000000	9.000912   
583.500000	8.786975   
584.000000	8.579933   
584.500000	8.371497   
585.000000	8.173426   
585.500000	7.994918   
586.000000	7.823936   
586.500000	7.665181   
587.000000	7.511812   
587.500000	7.359094   
588.000000	7.199500   
588.500000	7.035701   
589.000000	6.883352   
589.500000	6.731480   
590.000000	6.586124   
590.500000	6.446415   
591.000000	6.314053   
591.500000	6.182283   
592.000000	6.049497   
592.500000	5.927230   
593.000000	5.812228   
593.500000	5.700551   
594.000000	5.592595   
594.500000	5.489270   
595.000000	5.385868   
595.500000	5.281417   

