PE FL                   SPECTRUM    ASCII       PEDS        1.60        
  -1
SM0612~1.TXT
19/02/07
17:40:01.00
19/02/07
17:40:01.00


648.500000
1









LS55
460.00
5.00
2.50
SCAN
1
20
100
100
0
40
0
1
0
1
7
ON
650 460 
1 2 0
#HDR
-1
-1
#GR
NM

0.00002384185791015625
0.0
470.000000
0.500000
358
8
11.273133
0.068333
#DATA
470.000000	0.412000  
470.500000	0.330866  
471.000000	0.304666  
471.500000	0.318000  
472.000000	0.324266  
472.500000	0.327666  
473.000000	0.329266  
473.500000	0.313200  
474.000000	0.305333  
474.500000	0.299866  
475.000000	0.277066  
475.500000	0.259666  
476.000000	0.256200  
476.500000	0.260000  
477.000000	0.275666  
477.500000	0.277333  
478.000000	0.261933  
478.500000	0.261466  
479.000000	0.285733  
479.500000	0.308133  
480.000000	0.306266  
480.500000	0.284799  
481.000000	0.250800  
481.500000	0.229800  
482.000000	0.248000  
482.500000	0.281666  
483.000000	0.299000  
483.500000	0.290133  
484.000000	0.257200  
484.500000	0.240333  
485.000000	0.259800  
485.500000	0.274133  
486.000000	0.263933  
486.500000	0.266866  
487.000000	0.280066  
487.500000	0.266533  
488.000000	0.245133  
488.500000	0.241266  
489.000000	0.231400  
489.500000	0.239266  
490.000000	0.267400  
490.500000	0.267533  
491.000000	0.272066  
491.500000	0.288266  
492.000000	0.272466  
492.500000	0.271466  
493.000000	0.287666  
493.500000	0.273466  
494.000000	0.234066  
494.500000	0.222533  
495.000000	0.249466  
495.500000	0.267933  
496.000000	0.266533  
496.500000	0.284066  
497.000000	0.284266  
497.500000	0.245066  
498.000000	0.228066  
498.500000	0.249066  
499.000000	0.251600  
499.500000	0.271666  
500.000000	0.315066  
500.500000	0.295866  
501.000000	0.267866  
501.500000	0.297466  
502.000000	0.298666  
502.500000	0.253866  
503.000000	0.235933  
503.500000	0.245400  
504.000000	0.249200  
504.500000	0.251866  
505.000000	0.264400  
505.500000	0.266800  
506.000000	0.249066  
506.500000	0.240800  
507.000000	0.269800  
507.500000	0.295666  
508.000000	0.288666  
508.500000	0.261133  
509.000000	0.228000  
509.500000	0.232800  
510.000000	0.258133  
510.500000	0.250933  
511.000000	0.233933  
511.500000	0.223800  
512.000000	0.216800  
512.500000	0.221600  
513.000000	0.221933  
513.500000	0.208133  
514.000000	0.193333  
514.500000	0.185600  
515.000000	0.187866  
515.500000	0.197133  
516.000000	0.191333  
516.500000	0.169333  
517.000000	0.163533  
517.500000	0.182466  
518.000000	0.191733  
518.500000	0.179733  
519.000000	0.173066  
519.500000	0.174466  
520.000000	0.165200  
520.500000	0.159400  
521.000000	0.160266  
521.500000	0.149600  
522.000000	0.131400  
522.500000	0.116800  
523.000000	0.108933  
523.500000	0.105866  
524.000000	0.105000  
524.500000	0.116666  
525.000000	0.126933  
525.500000	0.125866  
526.000000	0.120333  
526.500000	0.120933  
527.000000	0.126200  
527.500000	0.114800  
528.000000	0.090133  
528.500000	0.090933  
529.000000	0.106066  
529.500000	0.110533  
530.000000	0.096600  
530.500000	0.083666  
531.000000	0.089266  
531.500000	0.095266  
532.000000	0.091466  
532.500000	0.094333  
533.000000	0.102400  
533.500000	0.098266  
534.000000	0.102066  
534.500000	0.110866  
535.000000	0.103000  
535.500000	0.090533  
536.000000	0.096933  
536.500000	0.090866  
537.000000	0.084466  
537.500000	0.078400  
538.000000	0.073799  
538.500000	0.082533  
539.000000	0.099933  
539.500000	0.099066  
540.000000	0.093933  
540.500000	0.088399  
541.000000	0.082933  
541.500000	0.084266  
542.000000	0.092333  
542.500000	0.098866  
543.000000	0.101600  
543.500000	0.088066  
544.000000	0.068933  
544.500000	0.069666  
545.000000	0.083666  
545.500000	0.104600  
546.000000	0.125200  
546.500000	0.117200  
547.000000	0.088066  
547.500000	0.071066  
548.000000	0.071533  
548.500000	0.082133  
549.000000	0.085466  
549.500000	0.076066  
550.000000	0.082200  
550.500000	0.099533  
551.000000	0.101666  
551.500000	0.097400  
552.000000	0.097600  
552.500000	0.094933  
553.000000	0.090400  
553.500000	0.093400  
554.000000	0.101866  
554.500000	0.094533  
555.000000	0.081133  
555.500000	0.086066  
556.000000	0.090733  
556.500000	0.088266  
557.000000	0.091733  
557.500000	0.089533  
558.000000	0.079066  
558.500000	0.068333  
559.000000	0.073600  
559.500000	0.085666  
560.000000	0.079333  
560.500000	0.075199  
561.000000	0.095066  
561.500000	0.108466  
562.000000	0.099533  
562.500000	0.091066  
563.000000	0.101800  
563.500000	0.123866  
564.000000	0.128600  
564.500000	0.116266  
565.000000	0.114000  
565.500000	0.117400  
566.000000	0.107066  
566.500000	0.113333  
567.000000	0.130666  
567.500000	0.137933  
568.000000	0.141866  
568.500000	0.151000  
569.000000	0.146666  
569.500000	0.129266  
570.000000	0.140066  
570.500000	0.168400  
571.000000	0.173200  
571.500000	0.157333  
572.000000	0.149066  
572.500000	0.166133  
573.000000	0.169666  
573.500000	0.161866  
574.000000	0.194600  
574.500000	0.205066  
575.000000	0.197266  
575.500000	0.217800  
576.000000	0.225933  
576.500000	0.225800  
577.000000	0.240133  
577.500000	0.249666  
578.000000	0.256200  
578.500000	0.292600  
579.000000	0.329933  
579.500000	0.343733  
580.000000	0.344800  
580.500000	0.343933  
581.000000	0.356800  
581.500000	0.396600  
582.000000	0.430866  
582.500000	0.481066  
583.000000	0.530666  
583.500000	0.581133  
584.000000	0.650266  
584.500000	0.713800  
585.000000	0.761466  
585.500000	0.824333  
586.000000	0.895866  
586.500000	0.971000  
587.000000	1.045533  
587.500000	1.129733  
588.000000	1.244533  
588.500000	1.392933  
589.000000	1.565200  
589.500000	1.760066  
590.000000	1.978866  
590.500000	2.205400  
591.000000	2.396466  
591.500000	2.550933  
592.000000	2.798933  
592.500000	3.201333  
593.000000	3.648933  
593.500000	3.990666  
594.000000	4.193200  
594.500000	4.435666  
595.000000	4.852866  
595.500000	5.332666  
596.000000	5.782200  
596.500000	6.219799  
597.000000	6.628799  
597.500000	7.047533  
598.000000	7.540800  
598.500000	7.970199  
599.000000	8.281800  
599.500000	8.601600  
600.000000	9.021933  
600.500000	9.454599  
601.000000	9.741800  
601.500000	10.021466 
602.000000	10.291266 
602.500000	10.372866 
603.000000	10.496800 
603.500000	10.774666 
604.000000	11.043533 
604.500000	11.226866 
605.000000	11.273133 
605.500000	11.226866 
606.000000	11.240533 
606.500000	11.237200 
607.000000	11.064800 
607.500000	10.985266 
608.000000	10.945933 
608.500000	10.800733 
609.000000	10.656266 
609.500000	10.609066 
610.000000	10.520733 
610.500000	10.266000 
611.000000	9.870066  
611.500000	9.680399  
612.000000	9.571800  
612.500000	9.396599  
613.000000	9.187066  
613.500000	8.927133  
614.000000	8.651866  
614.500000	8.496533  
615.000000	8.255533  
615.500000	7.950600  
616.000000	7.729600  
616.500000	7.495133  
617.000000	7.359800  
617.500000	7.298266  
618.000000	7.058466  
618.500000	6.821400  
619.000000	6.663800  
619.500000	6.436400  
620.000000	6.259333  
620.500000	6.077133  
621.000000	5.848599  
621.500000	5.724933  
622.000000	5.606533  
622.500000	5.390000  
623.000000	5.234333  
623.500000	5.227133  
624.000000	5.191266  
624.500000	4.994800  
625.000000	4.766733  
625.500000	4.607266  
626.000000	4.479066  
626.500000	4.381933  
627.000000	4.268533  
627.500000	4.138466  
628.000000	4.104466  
628.500000	4.069266  
629.000000	3.949533  
629.500000	3.824933  
630.000000	3.724600  
630.500000	3.636333  
631.000000	3.544000  
631.500000	3.449533  
632.000000	3.416133  
632.500000	3.400133  
633.000000	3.328133  
633.500000	3.234666  
634.000000	3.190333  
634.500000	3.173133  
635.000000	3.149866  
635.500000	3.100800  
636.000000	3.005933  
636.500000	2.928666  
637.000000	2.920333  
637.500000	2.897333  
638.000000	2.811600  
638.500000	2.766600  
639.000000	2.788466  
639.500000	2.828933  
640.000000	2.815533  
640.500000	2.711066  
641.000000	2.609600  
641.500000	2.606400  
642.000000	2.634333  
642.500000	2.610533  
643.000000	2.545000  
643.500000	2.470666  
644.000000	2.396266  
644.500000	2.379200  
645.000000	2.386533  
645.500000	2.330200  
646.000000	2.233466  
646.500000	2.236200  
647.000000	2.218666  
647.500000	2.123333  
648.000000	2.103666  
648.500000	2.096666  

