PE FL                   SPECTRUM    ASCII       PEDS        1.60        
  -1
SME306~1.TXT
19/02/08
10:41:18.00
19/02/08
10:41:18.00


648.500000
1









LS55
460.00
5.00
2.50
SCAN
1
20
100
100
0
40
0
1
0
1
7
ON
650 460 
1 2 0
#HDR
-1
-1
#GR
NM

0.00002384185791015625
0.0
470.000000
0.500000
358
8
10.844933
0.187266
#DATA
470.000000	0.601000  
470.500000	0.698000  
471.000000	0.697600  
471.500000	0.649400  
472.000000	0.609066  
472.500000	0.594666  
473.000000	0.584133  
473.500000	0.559800  
474.000000	0.573333  
474.500000	0.598333  
475.000000	0.565800  
475.500000	0.553533  
476.000000	0.590933  
476.500000	0.606666  
477.000000	0.589600  
477.500000	0.583066  
478.000000	0.583533  
478.500000	0.588333  
479.000000	0.597599  
479.500000	0.614599  
480.000000	0.655333  
480.500000	0.685666  
481.000000	0.671133  
481.500000	0.680866  
482.000000	0.726533  
482.500000	0.765666  
483.000000	0.797199  
483.500000	0.812133  
484.000000	0.820800  
484.500000	0.869933  
485.000000	0.939133  
485.500000	0.983666  
486.000000	1.027733  
486.500000	1.090800  
487.000000	1.156266  
487.500000	1.201333  
488.000000	1.235266  
488.500000	1.314200  
489.000000	1.436200  
489.500000	1.505333  
490.000000	1.546933  
490.500000	1.622466  
491.000000	1.753600  
491.500000	1.903800  
492.000000	2.006200  
492.500000	2.115400  
493.000000	2.269333  
493.500000	2.397533  
494.000000	2.535066  
494.500000	2.648400  
495.000000	2.745866  
495.500000	2.897000  
496.000000	3.017466  
496.500000	3.128933  
497.000000	3.351600  
497.500000	3.535933  
498.000000	3.695933  
498.500000	3.931733  
499.000000	4.141800  
499.500000	4.300800  
500.000000	4.502933  
500.500000	4.697733  
501.000000	4.883933  
501.500000	5.103133  
502.000000	5.391933  
502.500000	5.665666  
503.000000	5.839600  
503.500000	6.020000  
504.000000	6.220266  
504.500000	6.325000  
505.000000	6.542800  
505.500000	6.863000  
506.000000	7.059799  
506.500000	7.253000  
507.000000	7.532400  
507.500000	7.753266  
508.000000	7.955533  
508.500000	8.126266  
509.000000	8.347600  
509.500000	8.611266  
510.000000	8.744800  
510.500000	8.803866  
511.000000	8.941666  
511.500000	9.177466  
512.000000	9.396466  
512.500000	9.472666  
513.000000	9.593800  
513.500000	9.768466  
514.000000	9.856999  
514.500000	9.993733  
515.000000	10.148200 
515.500000	10.316000 
516.000000	10.553733 
516.500000	10.638533 
517.000000	10.517066 
517.500000	10.488333 
518.000000	10.626733 
518.500000	10.762666 
519.000000	10.785066 
519.500000	10.726200 
520.000000	10.692666 
520.500000	10.747933 
521.000000	10.835733 
521.500000	10.844933 
522.000000	10.788000 
522.500000	10.783533 
523.000000	10.788666 
523.500000	10.681933 
524.000000	10.560800 
524.500000	10.517733 
525.000000	10.471066 
525.500000	10.447400 
526.000000	10.501866 
526.500000	10.500800 
527.000000	10.456800 
527.500000	10.379533 
528.000000	10.197800 
528.500000	10.096133 
529.000000	10.113200 
529.500000	10.048733 
530.000000	9.981066  
530.500000	9.944666  
531.000000	9.776066  
531.500000	9.600000  
532.000000	9.553066  
532.500000	9.456266  
533.000000	9.316133  
533.500000	9.265999  
534.000000	9.159266  
534.500000	8.999200  
535.000000	8.896666  
535.500000	8.807533  
536.000000	8.745000  
536.500000	8.812733  
537.000000	8.664533  
537.500000	8.331133  
538.000000	8.318533  
538.500000	8.386866  
539.000000	8.157466  
539.500000	8.008599  
540.000000	7.959266  
540.500000	7.868466  
541.000000	7.782666  
541.500000	7.672599  
542.000000	7.616400  
542.500000	7.635333  
543.000000	7.585066  
543.500000	7.478199  
544.000000	7.352800  
544.500000	7.230466  
545.000000	7.183266  
545.500000	7.190666  
546.000000	7.172600  
546.500000	7.052066  
547.000000	6.849400  
547.500000	6.695666  
548.000000	6.706733  
548.500000	6.777266  
549.000000	6.743200  
549.500000	6.624400  
550.000000	6.550133  
550.500000	6.532533  
551.000000	6.432666  
551.500000	6.217999  
552.000000	6.091200  
552.500000	6.117133  
553.000000	6.113533  
553.500000	6.028400  
554.000000	5.877599  
554.500000	5.711600  
555.000000	5.635866  
555.500000	5.608933  
556.000000	5.510533  
556.500000	5.348866  
557.000000	5.277666  
557.500000	5.355000  
558.000000	5.386466  
558.500000	5.258199  
559.000000	5.072533  
559.500000	4.993200  
560.000000	4.995133  
560.500000	4.917933  
561.000000	4.780933  
561.500000	4.653600  
562.000000	4.571933  
562.500000	4.580333  
563.000000	4.534533  
563.500000	4.419733  
564.000000	4.364933  
564.500000	4.339266  
565.000000	4.293800  
565.500000	4.235400  
566.000000	4.174133  
566.500000	4.071800  
567.000000	3.940066  
567.500000	3.881066  
568.000000	3.835933  
568.500000	3.774666  
569.000000	3.786133  
569.500000	3.773066  
570.000000	3.663466  
570.500000	3.543800  
571.000000	3.437600  
571.500000	3.381866  
572.000000	3.371133  
572.500000	3.372933  
573.000000	3.351733  
573.500000	3.264133  
574.000000	3.102866  
574.500000	3.069133  
575.000000	3.162600  
575.500000	3.180733  
576.000000	3.048266  
576.500000	2.863933  
577.000000	2.739666  
577.500000	2.750466  
578.000000	2.803000  
578.500000	2.785866  
579.000000	2.681933  
579.500000	2.586533  
580.000000	2.567666  
580.500000	2.560400  
581.000000	2.512000  
581.500000	2.429533  
582.000000	2.363400  
582.500000	2.350000  
583.000000	2.342400  
583.500000	2.326733  
584.000000	2.333000  
584.500000	2.290466  
585.000000	2.186600  
585.500000	2.101933  
586.000000	2.008000  
586.500000	1.953866  
587.000000	1.984800  
587.500000	1.992333  
588.000000	1.955533  
588.500000	1.927266  
589.000000	1.895733  
589.500000	1.856600  
590.000000	1.819066  
590.500000	1.803333  
591.000000	1.790266  
591.500000	1.725733  
592.000000	1.646933  
592.500000	1.615200  
593.000000	1.580666  
593.500000	1.539933  
594.000000	1.526466  
594.500000	1.497533  
595.000000	1.466200  
595.500000	1.453000  
596.000000	1.414533  
596.500000	1.379666  
597.000000	1.367400  
597.500000	1.353600  
598.000000	1.351666  
598.500000	1.336933  
599.000000	1.265133  
599.500000	1.211066  
600.000000	1.238733  
600.500000	1.239800  
601.000000	1.185600  
601.500000	1.159466  
602.000000	1.179266  
602.500000	1.183866  
603.000000	1.126733  
603.500000	1.078266  
604.000000	1.078133  
604.500000	1.040600  
605.000000	0.977866  
605.500000	0.956399  
606.000000	0.963999  
606.500000	0.968866  
607.000000	0.950466  
607.500000	0.927666  
608.000000	0.906866  
608.500000	0.893600  
609.000000	0.888133  
609.500000	0.876799  
610.000000	0.849466  
610.500000	0.822266  
611.000000	0.769133  
611.500000	0.727666  
612.000000	0.743000  
612.500000	0.760933  
613.000000	0.732066  
613.500000	0.721399  
614.000000	0.748800  
614.500000	0.735800  
615.000000	0.685933  
615.500000	0.675733  
616.000000	0.666133  
616.500000	0.637133  
617.000000	0.634466  
617.500000	0.618399  
618.000000	0.596600  
618.500000	0.589666  
619.000000	0.583800  
619.500000	0.577933  
620.000000	0.557133  
620.500000	0.538200  
621.000000	0.540733  
621.500000	0.524933  
622.000000	0.507733  
622.500000	0.508933  
623.000000	0.511266  
623.500000	0.518333  
624.000000	0.528133  
624.500000	0.514933  
625.000000	0.472933  
625.500000	0.447666  
626.000000	0.445733  
626.500000	0.446133  
627.000000	0.452333  
627.500000	0.443133  
628.000000	0.397800  
628.500000	0.386200  
629.000000	0.411933  
629.500000	0.402600  
630.000000	0.363666  
630.500000	0.346200  
631.000000	0.343800  
631.500000	0.345200  
632.000000	0.354533  
632.500000	0.370200  
633.000000	0.365400  
633.500000	0.352999  
634.000000	0.354933  
634.500000	0.352000  
635.000000	0.337200  
635.500000	0.332133  
636.000000	0.332400  
636.500000	0.323533  
637.000000	0.304733  
637.500000	0.290533  
638.000000	0.283333  
638.500000	0.285400  
639.000000	0.289800  
639.500000	0.302533  
640.000000	0.303333  
640.500000	0.271666  
641.000000	0.252466  
641.500000	0.257333  
642.000000	0.233133  
642.500000	0.222800  
643.000000	0.263600  
643.500000	0.289000  
644.000000	0.272066  
644.500000	0.238200  
645.000000	0.211600  
645.500000	0.213666  
646.000000	0.211400  
646.500000	0.187266  
647.000000	0.192066  
647.500000	0.212266  
648.000000	0.209400  
648.500000	0.199066  

